Part protocol
Network name;Part_Maxymos_1_MP-001_2017-02-22_16-06-16_Sila_bl_trans150obr_000087_OK.csv
Protocol version;3.01.00






Result information
Date;2017/02/22
Time;16:06:16
Cycle number;87
Total result;OK
Triggered switch signals
Part serial number;Sila_bl_trans150obr_000087
Measuring program name;BL_rans
Measuring program number;1
Zero X offset;0.00;mm
Tara Y offset;0.00;N









Process values - curve related
Block X;12.01;mm;XMIN-X;9.16;mm
Block Y;1403.04;N;XMIN-Y;-0.07;N
Ref X;10.98;mm;XMAX-X;12.01;mm
Peak-peak X;2.85;mm;XMAX-Y;1403.04;N
Peak-peak Y;8272.95;N;YMIN-X;9.18;mm
;;;YMIN-Y;-0.41;N
;;;YMAX-X;11.33;mm
;;;YMAX-Y;8272.54;N

Process values - EO related;Result;Entry;Exit;XMIN-X;XMIN-Y;XMAX-X;XMAX-Y;YMIN-Y;YMIN-X;YMAX-Y;YMAX-X;Calculated result;NOK cause;Violation X;Violation Y;Ref X;Ref Y;Switch force;Y-Diff;X-Diff;Force deviation ratio;Click ratio;Contact edge
;;;;mm;N;mm;N;N;mm;N;mm;-;-;-;-;-;-;-;-;-;-;-;-;
EO-01;OK;10.95;;;;;;;;;;;;;;;;
EO-02;OK;;;;;;;;;;;-0.3740;;;;;;
EO-03;OK;;;;;;;;;;;;;;;;;
EO-04;None;
EO-05;None;
EO-06;None;
EO-07;None;
EO-08;None;
EO-09;None;
EO-10;None;


















Evaluation objects settings;Reaction;X reference;Y-Reference;XMin;XMax;YMin;YMax;Entry;Exit;Curve part;Catch zone X;Catch zone Y;EO Name;EO description;Re-entry ignored;Generate statistics;X-Hysteresis;Y-Hysteresis;Down sampling rate;Calc limit min;Calc limit max;Grad limit min;Grad limit max;Hyst limit min;Hyst limit max;Speed limit min;Speed limit max;Time limit min;Time limit max;Is curve inside box;GetRef type;CalcInput1 | dx;CalcInput2 | dx;Calc operation;Average limit min;Average limit max;Break max bending;Visualization offset X;Visualization offset Y;-;-;-
EO-01;LINE-X;ABSOLUTE;ABSOLUTE;10.20;11.50;1000.00;;BELOW;NONE;ANY;+50%;+0%;;;FALSE;TRUE;0.0;0.0;1;;;;;;;;;;;;;;;;;;;0.00;0.00;;;
EO-02;CALC;ABSOLUTE;ABSOLUTE;9.94;;4671.78;;NONE;NONE;ANY;+0%;+0%;;;FALSE;TRUE;0.0;0.0;1;-0.410000;-0.310000;;;;;;;;;;;EO-01 | ENTRY;PV_TABLE_CURVE | YMAX-X;Subtraction;;;;0.00;0.00;;;
EO-03;NO-PASS;ABSOLUTE;ABSOLUTE;9.26;12.25;8743.21;;NONE;NONE;ANY;+0%;+0%;;;FALSE;TRUE;0.0;0.0;1;;;;;;;;;;;;;;;;;;;0.00;0.00;;;
EO-04;OFF
EO-05;OFF
EO-06;OFF
EO-07;OFF
EO-08;OFF
EO-09;OFF
EO-10;OFF



















Switch signal settings;Channel;Threshold at;;Trigger from;Reference;Latch until
Type S1;X;9.86;mm;LEFT;ABSOLUTE;None
Type S2;X;11.48;mm;LEFT;ABSOLUTE;None

















Device information
Device type;maXYmos TL
Device type number;5877A0
Device serial number;4915791
Firmware version;1.1.12 (r21150-TL_v1.1.x)
-
-
-
-
-
IP Address;192.168.21.10
Network name;Maxymos 1
Profibus address;10
-
-
-
Station name;Maxymos 1
Company name;ITW WIP PW
Comment;











Channel-X settings
Use the settings from global setup;True
Sensor-X type;Potentiometer
Unit;mm
Used range from;-5.00;mm
Used range to;25.00;mm
Decimal places;XXXX.XX
Scaling by;Teach-In
Point 1;15.00;mm;69.111;%
Point 2;13.221;mm;13.221;%
Invert signal;FALSE
Filter;OFF
Test point;0.00;mm
Tolerance;0.20;mm
Enable sensor test by dig-input;TRUE
Zoom from;0.00;mm
Zoom to;25.00;mm
Master Measurement Enable;FALSE
Master Measurement Nominal Position;0.00;mm
Encoder interpolation factor;-
Encoder electrical interface;-
Encoder referencing type;-
Encoder referencing edge;-
Encoder pulses per minute;-
Encoder use every nth-mark;-
Reference;-
Encoder reference points;-
Encoder coding;-
Encoder width;-
Encoder optimization;-
Encoder clock frequency;-
Termination resistor;-








Channel-Y settings
Use the settings from global setup;True
Sensor-Y type;Piezo
Unit;N
Used range from;0.00;N
Used range to;190000.00;N
Decimal places;XXXX.XX
Scaling by;Calibration Sheet
Sensitivity;-4.3000;pC/N
-
Invert signal;FALSE
Filter;500 Hz
Piezo reset;TRUE
Test point;0.00;N
Tolerance;0.00;N
Enable sensor test by dig-input;FALSE
Zoom from;0.00;N
Zoom to;1000.00;N












Cycle control settings
Use the settings from global setup;True
Measuring function;Y (X)
Delta-X;User-Defined;0.0100;mm
START condition;Threshold-X;9.00;mm;Trigger from;LEFT
STOP condition;Threshold-X;12.00;mm;Trigger from;LEFT
Cycle time out;1.00;s
Turning point RIGHT;YMAX
Turning point LEFT;NONE
Cut curve at;NONE










Evaluation settings
Capture only first NOK-EO for statistics;False
Hysteresis X;0.0;%
Hysteresis Y;0.0;%






Trigger Y settings
Threshold at;1607.52;N
Value X at TRIGGER Y;0.00;mm
Approach from;BELOW






Block settings
Value X at block;XMAX
Block at;0.00;mm







Measuring curve
Number of measuring points;235
Ref. Graph on;ABSOLUTE
Curve segments;0;181;180;235;


Time;X(ABSOLUTE);Y;X (ABSOLUTE)


s;mm;N;mm
0.0000;9.15888;-0.07417;9.15888
0.0002;9.17043;-0.33376;9.17043
0.0003;9.17759;-0.40793;9.17759
0.0003;9.18264;-0.37084;9.18264
0.0005;9.19685;0.37084;9.19685
0.0006;9.20837;1.66879;9.20837
0.0007;9.22041;5.00636;9.22041
0.0009;9.23478;9.82730;9.23478
0.0010;9.24788;15.76076;9.24788
0.0012;9.25853;22.10215;9.25853
0.0013;9.26914;28.25812;9.26914
0.0014;9.28169;33.59823;9.28169
0.0016;9.29470;39.19794;9.29470
0.0017;9.30566;41.31173;9.30566
0.0019;9.31793;43.53678;9.31793
0.0020;9.33011;44.64931;9.33011
0.0022;9.34134;47.91271;9.34134
0.0024;9.35247;52.36281;9.35247
0.0025;9.36658;56.84999;9.36658
0.0026;9.38075;60.18756;9.38075
0.0027;9.39730;63.74764;9.39730
0.0028;9.40971;67.53022;9.40971
0.0031;9.42167;77.54294;9.42167
0.0032;9.43186;81.36261;9.43186
0.0033;9.44285;86.18354;9.44285
0.0034;9.45811;88.63110;9.45811
0.0035;9.46840;90.37405;9.46840
0.0036;9.47869;91.48658;9.47869
0.0038;9.48879;92.30243;9.48879
0.0040;9.50027;93.19245;9.50027
0.0042;9.51441;94.82415;9.51441
0.0043;9.52848;96.38168;9.52848
0.0044;9.53917;98.27297;9.53917
0.0045;9.55235;100.42385;9.55235
0.0047;9.56403;106.80233;9.56403
0.0048;9.57448;111.06700;9.57448
0.0050;9.58717;115.44293;9.58717
0.0051;9.60156;118.26133;9.60156
0.0052;9.61211;121.82140;9.61211
0.0054;9.62321;135.65379;9.62321
0.0056;9.63464;148.52198;9.63464
0.0057;9.64768;150.22785;9.64768
0.0059;9.65999;146.70486;9.65999
0.0060;9.67190;141.58725;9.67190
0.0062;9.68631;140.25222;9.68631
0.0063;9.69647;141.55017;9.69647
0.0064;9.70724;147.18696;9.70724
0.0066;9.71872;154.30711;9.71872
0.0068;9.73011;160.50016;9.73011
0.0069;9.74501;164.20858;9.74501
0.0071;9.76043;168.54742;9.76043
0.0072;9.77123;171.47707;9.77123
0.0073;9.78282;175.48215;9.78282
0.0074;9.79305;178.37472;9.79305
0.0076;9.80351;179.26474;9.80351
0.0077;9.81415;178.85681;9.81415
0.0079;9.82917;179.82100;9.82917
0.0080;9.83986;183.64067;9.83986
0.0082;9.85243;190.50123;9.85243
0.0084;9.86404;195.21092;9.86404
0.0085;9.87813;199.47559;9.87813
0.0087;9.89075;205.14947;9.89075
0.0088;9.90334;210.19291;9.90334
0.0090;9.91596;216.27471;9.91596
0.0092;9.92678;218.61101;9.92678
0.0093;9.93772;220.76189;9.93772
0.0095;9.95165;228.73498;9.95165
0.0096;9.96623;238.22852;9.96623
0.0098;9.97932;244.01365;9.97932
0.0099;9.99186;242.71570;9.99186
0.0101;10.00512;240.08273;10.00512
0.0103;10.01728;238.93312;10.01728
0.0104;10.02839;243.01238;10.02839
0.0105;10.03840;248.05582;10.03840
0.0107;10.05397;255.50973;10.05397
0.0108;10.06453;258.43938;10.06453
0.0109;10.07674;259.66315;10.07674
0.0111;10.08837;259.62607;10.08837
0.0113;10.09887;261.22069;10.09887
0.0114;10.11224;262.81531;10.11224
0.0115;10.12416;267.11707;10.12416
0.0117;10.13607;274.38556;10.13607
0.0118;10.14968;279.46609;10.14968
0.0119;10.16262;285.88164;10.16262
0.0120;10.17707;289.25630;10.17707
0.0121;10.18806;292.03761;10.18806
0.0122;10.19935;295.30101;10.19935
0.0124;10.20973;297.82274;10.20973
0.0126;10.22222;299.56569;10.22222
0.0127;10.23871;303.08868;10.23871
0.0128;10.24946;306.09250;10.24946
0.0130;10.26271;311.21011;10.26271
0.0131;10.27524;314.91852;10.27524
0.0132;10.28709;319.33154;10.28709
0.0133;10.30166;320.92616;10.30166
0.0137;10.31333;321.18574;10.31333
0.0138;10.32588;323.26246;10.32588
0.0139;10.33693;325.63584;10.33693
0.0140;10.35039;329.52968;10.35039
0.0141;10.36221;334.57312;10.36221
0.0143;10.37650;343.84415;10.37650
0.0144;10.38788;347.96049;10.38788
0.0147;10.40195;355.93358;10.40195
0.0149;10.41325;365.61254;10.41325
0.0150;10.42536;370.39640;10.42536
0.0152;10.43749;380.03828;10.43749
0.0153;10.44992;391.42311;10.44992
0.0155;10.46417;403.40128;10.46417
0.0156;10.47588;412.41273;10.47588
0.0157;10.48620;433.99570;10.48620
0.0159;10.49954;452.05568;10.49954
0.0160;10.51091;464.44178;10.51091
0.0161;10.52131;477.05039;10.52131
0.0163;10.53152;501.78551;10.53152
0.0165;10.54794;529.56153;10.54794
0.0166;10.55920;540.09343;10.55920
0.0167;10.56949;550.40282;10.56949
0.0168;10.58103;564.97689;10.58103
0.0170;10.59147;582.88853;10.59147
0.0172;10.60309;596.42424;10.60309
0.0174;10.61655;615.48549;10.61655
0.0175;10.62970;625.64654;10.62970
0.0176;10.64111;641.51855;10.64111
0.0179;10.65384;667.18078;10.65384
0.0180;10.66395;676.82266;10.66395
0.0181;10.67538;695.36473;10.67538
0.0184;10.68667;715.39016;10.68667
0.0186;10.69913;728.14711;10.69913
0.0187;10.71316;733.70973;10.71316
0.0188;10.72318;741.53448;10.72318
0.0189;10.73441;746.87460;10.73441
0.0190;10.74641;752.54847;10.74641
0.0192;10.75959;761.44866;10.75959
0.0193;10.77094;773.83477;10.77094
0.0195;10.78498;787.14797;10.78498
0.0198;10.79917;804.76294;10.79917
0.0199;10.81126;815.44317;10.81126
0.0200;10.82226;822.41499;10.82226
0.0201;10.83423;828.86763;10.83423
0.0203;10.84665;837.28573;10.84665
0.0205;10.86157;848.59640;10.86157
0.0206;10.87358;852.86107;10.87358
0.0207;10.88425;859.20246;10.88425
0.0210;10.89523;872.47858;10.89523
0.0212;10.90526;883.04756;10.90526
0.0213;10.91792;891.87359;10.91792
0.0214;10.92847;908.22769;10.92847
0.0215;10.94145;937.74667;10.94145
0.0216;10.95311;985.95605;10.95311
0.0218;10.96602;1151.83342;10.96602
0.0220;10.97712;1407.12064;10.97712
0.0222;10.99061;1800.76880;10.99061
0.0224;11.00375;2044.15201;11.00375
0.0225;11.01625;2277.26292;11.01625
0.0228;11.02731;2694.49659;11.02731
0.0229;11.03739;2877.69225;11.03739
0.0231;11.05004;3103.90551;11.05004
0.0233;11.06096;3322.18276;11.06096
0.0237;11.07320;3704.52025;11.07320
0.0239;11.08349;3972.23067;11.08349
0.0240;11.09533;4130.24619;11.09533
0.0246;11.10582;4778.84781;11.10582
0.0251;11.11681;5317.30954;11.11681
0.0252;11.12935;5580.68111;11.12935
0.0254;11.14415;5786.20142;11.14415
0.0255;11.15484;5926.00863;11.15484
0.0258;11.16845;6353.62586;11.16845
0.0259;11.17872;6568.23178;11.17872
0.0261;11.19043;6848.69914;11.19043
0.0263;11.20462;7114.88910;11.20462
0.0264;11.21614;7301.05149;11.21614
0.0266;11.22685;7474.38276;11.22685
0.0267;11.23877;7634.17833;11.23877
0.0269;11.24974;7779.06606;11.24974
0.0270;11.26334;7907.26594;11.26334
0.0272;11.27352;8048.77902;11.27352
0.0274;11.28531;8131.32832;11.28531
0.0275;11.29672;8194.03760;11.29672
0.0276;11.31189;8238.01939;11.31189
0.0278;11.32407;8268.79923;11.32407
0.0279;11.32823;8272.54473;11.32823
0.0281;11.33680;8264.83123;11.33680
0.0282;11.34795;8251.66636;11.34795
0.0283;11.35883;8221.07194;11.35883
0.0285;11.37013;8161.18105;11.37013
0.0288;11.38133;8053.04370;11.38133
0.0289;11.39279;7933.63276;11.39279
0.0291;11.40643;7821.26782;11.40643
0.0292;11.41877;7733.71216;11.41877
0.0293;11.43065;7632.65788;11.43065
0.0294;11.44356;7501.63961;11.44356
0.0295;11.45583;7303.27654;11.45583
0.0296;11.46840;7004.30419;11.46840
0.0297;11.48248;6591.96563;11.48248
0.0298;11.49310;6082.54079;11.49310
0.0299;11.50514;5186.99587;11.50514
0.0300;11.51948;4525.37771;11.51948
0.0301;11.54009;3845.47707;11.54009
0.0302;11.55533;3190.31156;11.55533
0.0303;11.56990;2609.42557;11.56990
0.0304;11.58114;2139.97743;11.58114
0.0305;11.59757;1653.65601;11.59757
0.0306;11.61125;1448.65488;11.61125
0.0307;11.62969;1315.48573;11.62969
0.0308;11.64068;1271.50394;11.64068
0.0309;11.65577;1218.88154;11.65577
0.0310;11.66813;1187.76795;11.66813
0.0312;11.67850;1155.61600;11.67850
0.0312;11.69580;1128.24790;11.69580
0.0313;11.70954;1116.56640;11.70954
0.0314;11.72205;1102.65984;11.72205
0.0315;11.73505;1101.10231;11.73505
0.0316;11.74837;1106.77618;11.74837
0.0317;11.76006;1108.22247;11.76006
0.0319;11.77547;1103.66112;11.77547
0.0320;11.78966;1087.15867;11.78966
0.0322;11.80364;1060.12434;11.80364
0.0323;11.81372;1044.95692;11.81372
0.0324;11.82569;1038.05927;11.82569
0.0325;11.83668;1041.47101;11.83668
0.0329;11.84763;1018.07092;11.84763
0.0331;11.85824;1021.85350;11.85824
0.0335;11.87101;1083.78402;11.87101
0.0336;11.88171;1094.72384;11.88171
0.0340;11.89177;1163.40367;11.89177
0.0344;11.90244;1220.14240;11.90244
0.0347;11.91445;1249.21637;11.91445
0.0348;11.92459;1293.04982;11.92459
0.0351;11.93563;1346.82183;11.93563
0.0353;11.94705;1360.39462;11.94705
0.0355;11.95757;1370.48151;11.95757
0.0356;11.96854;1379.60421;11.96854
0.0357;11.98154;1390.17319;11.98154
0.0358;11.99940;1402.15137;11.99940
0.0359;12.00781;1403.04139;12.00781
