Part protocol
Network name;Part_Maxymos_1_MP-001_2017-03-14_14-33-26_Sila_bl_trans150obr_tepy_036_OK.csv
Protocol version;3.01.00






Result information
Date;2017/03/14
Time;14:33:26
Cycle number;36
Total result;OK
Triggered switch signals
Part serial number;Sila_bl_trans150obr_tepy_036
Measuring program name;BL_rans
Measuring program number;1
Zero X offset;0.000;mm
Tara Y offset;0;N









Process values - curve related
Block X;10.002;mm;XMIN-X;8.881;mm
Block Y;429;N;XMIN-Y;0;N
Ref X;9.187;mm;XMAX-X;10.002;mm
Peak-peak X;1.121;mm;XMAX-Y;429;N
Peak-peak Y;7685;N;YMIN-X;8.888;mm
;;;YMIN-Y;-10;N
;;;YMAX-X;9.458;mm
;;;YMAX-Y;7676;N

Process values - EO related;Result;Entry;Exit;XMIN-X;XMIN-Y;XMAX-X;XMAX-Y;YMIN-Y;YMIN-X;YMAX-Y;YMAX-X;Calculated result;NOK cause;Violation X;Violation Y;Ref X;Ref Y;Switch force;Y-Diff;X-Diff;Force deviation ratio;Click ratio;Contact edge
;;;;mm;N;mm;N;N;mm;N;mm;-;-;-;-;-;-;-;-;-;-;-;-;
EO-01;OK;9.158;;;;;;;;;;;;;;;;
EO-02;OK;;;;;;;;;;;-0.2994;;;;;;
EO-03;OK;;;;;;;;;;;;;;;;;
EO-04;None;
EO-05;None;
EO-06;None;
EO-07;None;
EO-08;None;
EO-09;None;
EO-10;None;


















Evaluation objects settings;Reaction;X reference;Y-Reference;XMin;XMax;YMin;YMax;Entry;Exit;Curve part;Catch zone X;Catch zone Y;EO Name;EO description;Re-entry ignored;Generate statistics;X-Hysteresis;Y-Hysteresis;Down sampling rate;Calc limit min;Calc limit max;Grad limit min;Grad limit max;Hyst limit min;Hyst limit max;Speed limit min;Speed limit max;Time limit min;Time limit max;Is curve inside box;GetRef type;CalcInput1 | dx;CalcInput2 | dx;Calc operation;Average limit min;Average limit max;Break max bending;Visualization offset X;Visualization offset Y;-;-;-
EO-01;LINE-X;ABSOLUTE;ABSOLUTE;8.689;9.496;1000;;BELOW;NONE;ANY;+50%;+0%;;;FALSE;TRUE;0.0;0.0;1;;;;;;;;;;;;;;;;;;;0.000;0;;;
EO-02;CALC;ABSOLUTE;ABSOLUTE;7.603;;4166;;NONE;NONE;ANY;+0%;+0%;;;FALSE;TRUE;0.0;0.0;1;-0.360000;-0.280000;;;;;;;;;;;EO-01 | ENTRY;PV_TABLE_CURVE | YMAX-X;Subtraction;;;;0.000;0;;;
EO-03;NO-PASS;ABSOLUTE;ABSOLUTE;7.653;12.250;8743;;NONE;NONE;ANY;+0%;+0%;;;FALSE;TRUE;0.0;0.0;1;;;;;;;;;;;;;;;;;;;0.000;0;;;
EO-04;OFF
EO-05;OFF
EO-06;OFF
EO-07;OFF
EO-08;OFF
EO-09;OFF
EO-10;OFF



















Switch signal settings;Channel;Threshold at;;Trigger from;Reference;Latch until
Type S1;X;9.860;mm;LEFT;ABSOLUTE;None
Type S2;X;11.480;mm;LEFT;ABSOLUTE;None

















Device information
Device type;maXYmos TL
Device type number;5877A0
Device serial number;4915791
Firmware version;1.1.12 (r21150-TL_v1.1.x)
-
-
-
-
-
IP Address;192.168.21.10
Network name;Maxymos 1
Profibus address;10
-
-
-
Station name;Maxymos 1
Company name;ITW WIP PW
Comment;











Channel-X settings
Use the settings from global setup;True
Sensor-X type;Potentiometer
Unit;mm
Used range from;9.000;mm
Used range to;11.000;mm
Decimal places;XXX.XXX
Scaling by;Teach-In
Point 1;-0.380;mm;16.488;%
Point 2;72.105;mm;72.105;%
Invert signal;FALSE
Filter;OFF
Test point;0.000;mm
Tolerance;0.010;mm
Enable sensor test by dig-input;FALSE
Zoom from;0.000;mm
Zoom to;25.000;mm
Master Measurement Enable;FALSE
Master Measurement Nominal Position;0.000;mm
Encoder interpolation factor;-
Encoder electrical interface;-
Encoder referencing type;-
Encoder referencing edge;-
Encoder pulses per minute;-
Encoder use every nth-mark;-
Reference;-
Encoder reference points;-
Encoder coding;-
Encoder width;-
Encoder optimization;-
Encoder clock frequency;-
Termination resistor;-








Channel-Y settings
Use the settings from global setup;True
Sensor-Y type;Piezo
Unit;N
Used range from;0;N
Used range to;190000;N
Decimal places;XXXXXX
Scaling by;Calibration Sheet
Sensitivity;-4.3000;pC/N
-
Invert signal;FALSE
Filter;OFF
Piezo reset;TRUE
Test point;0;N
Tolerance;0;N
Enable sensor test by dig-input;FALSE
Zoom from;0;N
Zoom to;1000;N












Cycle control settings
Use the settings from global setup;True
Measuring function;Y (X)
Delta-X;User-Defined;0.00050;mm
START condition;Threshold-X;8.700;mm;Trigger from;LEFT
STOP condition;Threshold-X;10.000;mm;Trigger from;LEFT
Cycle time out;0.25;s
Turning point RIGHT;NONE
Turning point LEFT;NONE
Cut curve at;NONE










Evaluation settings
Capture only first NOK-EO for statistics;False
Hysteresis X;0.0;%
Hysteresis Y;0.0;%






Trigger Y settings
Threshold at;1608;N
Value X at TRIGGER Y;0.000;mm
Approach from;BELOW






Block settings
Value X at block;XMAX
Block at;0.000;mm







Measuring curve
Number of measuring points;297
Ref. Graph on;ABSOLUTE
Curve segments;0;297;


Time;X(ABSOLUTE);Y;X (ABSOLUTE)


s;mm;N;mm
0.0000;8.88141;-1.52045;8.88141
0.0001;8.88766;-9.67896;8.88766
0.0002;8.89512;-3.33757;8.89512
0.0002;8.89798;1.66879;8.89798
0.0003;8.90377;1.74295;8.90377
0.0003;8.90822;4.48718;8.90822
0.0004;8.91283;12.57152;8.91283
0.0004;8.91742;16.87328;8.91742
0.0005;8.92214;23.51135;8.92214
0.0005;8.92801;28.40645;8.92801
0.0006;8.93251;37.64040;8.93251
0.0006;8.93836;41.12631;8.93836
0.0007;8.94153;39.42044;8.94153
0.0007;8.94437;47.35645;8.94437
0.0008;8.94941;50.50860;8.94941
0.0008;8.95421;57.51750;8.95421
0.0009;8.96061;62.74637;8.96061
0.0009;8.96506;64.37807;8.96506
0.0010;8.96932;65.30517;8.96932
0.0010;8.96985;69.56985;8.96985
0.0011;8.97358;78.39587;8.97358
0.0011;8.97697;78.24754;8.97697
0.0012;8.98054;81.91887;8.98054
0.0012;8.98557;86.48022;8.98557
0.0012;8.99060;92.19117;8.99060
0.0013;8.99400;95.75125;8.99400
0.0013;8.99911;96.71544;8.99911
0.0014;9.00433;104.72561;9.00433
0.0014;9.00669;105.24479;9.00669
0.0015;9.01463;106.72816;9.01463
0.0015;9.01838;105.54146;9.01838
0.0016;9.02443;108.95321;9.02443
0.0016;9.02947;112.10536;9.02947
0.0017;9.03248;110.06573;9.03248
0.0017;9.03628;112.17953;9.03628
0.0018;9.03873;112.55037;9.03873
0.0018;9.04468;112.47620;9.04468
0.0019;9.04796;113.81123;9.04796
0.0019;9.05233;110.39949;9.05233
0.0020;9.05351;112.92121;9.05351
0.0020;9.05910;112.51328;9.05910
0.0021;9.06324;108.32278;9.06324
0.0021;9.06646;112.21661;9.06646
0.0022;9.07070;112.88412;9.07070
0.0022;9.07516;113.10663;9.07516
0.0023;9.07928;119.15134;9.07928
0.0023;9.08251;120.52346;9.08251
0.0024;9.08504;122.04391;9.08504
0.0024;9.08862;128.19988;9.08862
0.0024;9.09219;135.61670;9.09219
0.0025;9.09408;140.69723;9.09408
0.0026;9.10078;149.07825;9.10078
0.0026;9.10628;149.96827;9.10628
0.0027;9.10862;159.49889;9.10862
0.0027;9.11354;167.32364;9.11354
0.0028;9.12053;170.62413;9.12053
0.0028;9.12590;176.89135;9.12590
0.0029;9.13097;182.04605;9.13097
0.0029;9.13247;182.00896;9.13247
0.0030;9.13900;192.05877;9.13900
0.0030;9.14419;240.00856;9.14419
0.0031;9.14788;323.96705;9.14788
0.0031;9.14952;408.11097;9.14952
0.0032;9.15039;520.21633;9.15039
0.0032;9.15072;650.38166;9.15072
0.0033;9.15158;782.88330;9.15158
0.0033;9.15463;922.50509;9.15463
0.0034;9.16056;1044.25232;9.16056
0.0034;9.16838;1150.53547;9.16838
0.0035;9.17399;1253.66647;9.17399
0.0035;9.17725;1338.95999;9.17725
0.0036;9.17979;1422.02847;9.17979
0.0036;9.18150;1509.28745;9.18150
0.0036;9.18815;1587.75749;9.18815
0.0037;9.18689;1673.97812;9.18689
0.0037;9.19017;1759.01205;9.19017
0.0038;9.19191;1839.37339;9.19191
0.0038;9.19267;1916.36006;9.19267
0.0039;9.19487;1995.31220;9.19487
0.0039;9.19747;2075.00602;9.19747
0.0040;9.20056;2151.62185;9.20056
0.0040;9.20235;2223.34258;9.20235
0.0041;9.20941;2296.28709;9.20941
0.0041;9.21054;2374.01545;9.21054
0.0042;9.21276;2534.21894;9.21276
0.0043;9.21524;2616.32322;9.21524
0.0043;9.21890;2690.82526;9.21890
0.0044;9.22458;2849.28580;9.22458
0.0045;9.22658;2928.34918;9.22658
0.0045;9.23104;3005.55837;9.23104
0.0046;9.23189;3081.06168;9.23189
0.0046;9.23315;3153.82076;9.23315
0.0047;9.23651;3233.10665;9.23651
0.0047;9.23785;3303.97445;9.23785
0.0048;9.23882;3377.62355;9.23882
0.0048;9.24147;3519.17372;9.24147
0.0049;9.23978;3583.55179;9.23978
0.0049;9.24185;3645.40813;9.24185
0.0050;9.24240;3700.47808;9.24240
0.0051;9.24395;3798.49147;9.24395
0.0052;9.24622;3886.26963;9.24622
0.0052;9.24451;3930.84477;9.24451
0.0053;9.24789;3972.45317;9.24789
0.0053;9.24975;4016.06412;9.24975
0.0054;9.24885;4060.45384;9.24885
0.0054;9.24962;4100.65305;9.24962
0.0055;9.24909;4137.66302;9.24909
0.0055;9.25155;4176.34178;9.25155
0.0056;9.25269;4213.31467;9.25269
0.0057;9.25154;4292.86015;9.25154
0.0057;9.25366;4329.61053;9.25366
0.0058;9.25503;4405.18801;9.25503
0.0059;9.25856;4445.94348;9.25856
0.0059;9.25993;4479.65297;9.25993
0.0060;9.26196;4514.02996;9.26196
0.0060;9.26067;4557.75217;9.26067
0.0060;9.26367;4597.06136;9.26367
0.0061;9.26558;4682.13238;9.26558
0.0062;9.26688;4721.73824;9.26688
0.0062;9.26803;4764.12541;9.26803
0.0063;9.26690;4806.92051;9.26690
0.0063;9.26872;4849.78978;9.26872
0.0064;9.26971;4892.95572;9.26971
0.0064;9.27308;4938.05003;9.27308
0.0065;9.27684;4983.36685;9.27684
0.0065;9.27634;5024.53025;9.27634
0.0066;9.27885;5068.25245;9.27885
0.0066;9.28142;5111.52964;9.28142
0.0067;9.28532;5200.27199;9.28532
0.0068;9.28913;5287.79056;9.28913
0.0069;9.29182;5330.43733;9.29182
0.0069;9.29333;5374.60454;9.29333
0.0070;9.29612;5420.58887;9.29612
0.0070;9.29749;5458.41470;9.29749
0.0071;9.29908;5499.83768;9.29908
0.0071;9.30062;5545.93327;9.30062
0.0072;9.30168;5592.17719;9.30168
0.0072;9.30595;5635.78814;9.30595
0.0072;9.30740;5686.00007;9.30740
0.0073;9.30921;5732.83734;9.30921
0.0073;9.31278;5776.04036;9.31278
0.0074;9.31342;5819.94799;9.31342
0.0075;9.31604;5917.51636;9.31604
0.0076;9.31770;6014.97348;9.31770
0.0076;9.32223;6065.11124;9.32223
0.0077;9.32362;6115.99068;9.32362
0.0077;9.32621;6164.94175;9.32621
0.0078;9.32938;6216.89663;9.32938
0.0078;9.33016;6268.81443;9.33016
0.0079;9.32960;6375.06049;9.32960
0.0080;9.33070;6432.13298;9.33070
0.0080;9.33383;6486.83209;9.33383
0.0081;9.33610;6540.56701;9.33610
0.0081;9.33710;6594.07943;9.33710
0.0082;9.33826;6648.37061;9.33826
0.0082;9.34106;6699.73214;9.34106
0.0083;9.34305;6758.10258;9.34305
0.0083;9.34579;6810.05746;9.34579
0.0084;9.35080;6861.64150;9.35080
0.0084;9.35581;6913.44805;9.35581
0.0084;9.36011;6963.80831;9.36011
0.0085;9.36599;7010.68267;9.36599
0.0085;9.37178;7056.66700;9.37178
0.0086;9.37645;7104.57971;9.37645
0.0086;9.38009;7146.92980;9.38009
0.0087;9.38355;7193.91541;9.38355
0.0087;9.38685;7232.00082;9.38685
0.0088;9.39073;7273.01588;9.39073
0.0088;9.39171;7309.87751;9.39171
0.0089;9.39579;7347.10999;9.39579
0.0089;9.39896;7379.07652;9.39896
0.0090;9.40077;7411.59931;9.40077
0.0090;9.40191;7435.14774;9.40191
0.0091;9.40333;7465.14881;9.40333
0.0091;9.40630;7488.51182;9.40630
0.0092;9.40953;7512.28275;9.40953
0.0092;9.41372;7534.57032;9.41372
0.0093;9.41580;7556.26455;9.41580
0.0093;9.41968;7572.09947;9.41968
0.0094;9.42373;7593.38577;9.42373
0.0094;9.42716;7608.51610;9.42716
0.0095;9.42780;7620.71678;9.42780
0.0095;9.43175;7636.55171;9.43175
0.0096;9.43436;7647.38028;9.43436
0.0096;9.43588;7653.42500;9.43588
0.0096;9.44048;7655.65004;9.44048
0.0097;9.44438;7662.77020;9.44438
0.0097;9.44835;7668.11031;9.44835
0.0098;9.45227;7671.33664;9.45227
0.0098;9.45776;7675.78673;9.45776
0.0099;9.45994;7673.15376;9.45994
0.0099;9.46363;7674.48879;9.46363
0.0100;9.46983;7673.19084;9.46983
0.0100;9.47177;7674.34045;9.47177
0.0101;9.47548;7671.52206;9.47548
0.0101;9.47996;7668.55532;9.47996
0.0102;9.48270;7667.81364;9.48270
0.0102;9.48456;7665.99652;9.48456
0.0103;9.48814;7665.84818;9.48814
0.0103;9.49269;7662.65895;9.49269
0.0104;9.49759;7656.02088;9.49759
0.0104;9.50181;7650.68077;9.50181
0.0105;9.50717;7643.00435;9.50717
0.0105;9.51076;7633.69623;9.51076
0.0106;9.51179;7624.94437;9.51179
0.0106;9.51475;7616.93420;9.51475
0.0107;9.51608;7606.17980;9.51608
0.0107;9.52135;7596.35250;9.52135
0.0108;9.52543;7584.55975;9.52543
0.0108;9.52931;7571.32071;9.52931
0.0108;9.53182;7558.97169;9.53182
0.0109;9.53666;7547.84645;9.53666
0.0109;9.54285;7527.59851;9.54285
0.0110;9.54552;7512.76485;9.54552
0.0110;9.55068;7495.14988;9.55068
0.0111;9.55360;7474.27151;9.55360
0.0111;9.55529;7456.58238;9.55529
0.0112;9.55777;7437.81780;9.55777
0.0112;9.56023;7415.23356;9.56023
0.0113;9.56256;7391.24012;9.56256
0.0113;9.56523;7368.09962;9.56523
0.0114;9.57027;7350.96674;9.57027
0.0114;9.57378;7322.41195;9.57378
0.0115;9.57734;7301.64483;9.57734
0.0115;9.57849;7277.13222;9.57849
0.0116;9.57930;7220.61599;9.57930
0.0117;9.58316;7187.12901;9.58316
0.0117;9.58763;7152.93743;9.58763
0.0118;9.59002;7122.78802;9.59002
0.0118;9.59415;7083.84968;9.59415
0.0119;9.60048;7050.65937;9.60048
0.0119;9.60830;7010.71975;9.60830
0.0120;9.61607;6977.78903;9.61607
0.0120;9.62470;6939.55528;9.62470
0.0120;9.62785;6895.94433;9.62785
0.0121;9.63372;6853.52008;9.63372
0.0121;9.63837;6807.35032;9.63837
0.0122;9.64205;6760.88389;9.64205
0.0122;9.64884;6713.19369;9.64884
0.0123;9.65164;6659.19918;9.65164
0.0123;9.65469;6601.45917;9.65469
0.0124;9.66200;6529.62719;9.66200
0.0124;9.66568;6446.74413;9.66568
0.0125;9.66913;6349.28701;9.66913
0.0125;9.66962;6217.93499;9.66962
0.0126;9.67409;6030.88258;9.67409
0.0126;9.67688;5705.39507;9.67688
0.0127;9.67924;5202.86788;9.67924
0.0127;9.68189;4527.93652;9.68189
0.0128;9.68391;4059.89758;9.68391
0.0128;9.68580;3741.01105;9.68580
0.0129;9.69024;3378.47649;9.69024
0.0129;9.69377;3091.70483;9.69377
0.0130;9.69611;2937.10104;9.69611
0.0130;9.70247;2703.47095;9.70247
0.0131;9.70990;2486.34331;9.70990
0.0131;9.71778;2218.44748;9.71778
0.0132;9.72576;1900.30263;9.72576
0.0132;9.73271;1454.06916;9.73271
0.0132;9.74424;883.38132;9.74424
0.0133;9.75146;674.56052;9.75146
0.0133;9.75778;709.34545;9.75778
0.0134;9.76146;490.95694;9.76146
0.0134;9.76757;489.65900;9.76757
0.0135;9.77492;680.49399;9.77492
0.0135;9.78389;703.67157;9.78389
0.0136;9.79336;826.79092;9.79336
0.0136;9.80380;880.56293;9.80380
0.0137;9.81343;757.33233;9.81343
0.0137;9.81696;730.33507;9.81696
0.0138;9.82060;634.73216;9.82060
0.0138;9.82424;525.25977;9.82424
0.0139;9.83295;579.95888;9.83295
0.0139;9.84613;562.82601;9.84613
0.0140;9.85529;567.53569;9.85529
0.0140;9.86549;674.41219;9.86549
0.0141;9.87237;661.95191;9.87237
0.0141;9.88062;661.58107;9.88062
0.0142;9.88809;647.04409;9.88809
0.0142;9.89257;532.37993;9.89257
0.0143;9.89557;479.94295;9.89557
0.0143;9.89750;440.00333;9.89750
0.0144;9.90134;396.09571;9.90134
0.0144;9.91068;448.82936;9.91068
0.0144;9.92110;494.44285;9.92110
0.0145;9.93281;521.66261;9.93281
0.0145;9.94130;581.59058;9.94130
0.0146;9.94892;597.57385;9.94892
0.0146;9.95551;580.21847;9.95551
0.0147;9.96103;564.04978;9.96103
0.0147;9.96830;506.12435;9.96830
0.0148;9.97175;451.64775;9.97175
0.0148;9.97823;417.15950;9.97823
0.0149;9.98193;390.49600;9.98193
0.0149;9.98621;402.91919;9.98621
0.0150;9.99608;424.35382;9.99608
0.0150;10.00242;429.36018;10.00242
