Part protocol
Network name;Part_Maxymos_2_MP-001_2017-03-14_14-21-31_RMS_bl_trans150obr_tepy_000021_OK.csv
Protocol version;3.01.00






Result information
Date;2017/03/14
Time;14:21:31
Cycle number;21
Total result;OK
Triggered switch signals
Part serial number;RMS_bl_trans150obr_tepy_000021
Measuring program name;Bl_trans
Measuring program number;1
Zero X offset;0.000;mm
Tara Y offset;0.0000;RMS









Process values - curve related
Block X;12.001;mm;XMIN-X;7.673;mm
Block Y;0.0218;RMS;XMIN-Y;0.1031;RMS
Ref X;-;mm;XMAX-X;12.001;mm
Peak-peak X;4.328;mm;XMAX-Y;0.0218;RMS
Peak-peak Y;0.4964;RMS;YMIN-X;11.995;mm
;;;YMIN-Y;0.0217;RMS
;;;YMAX-X;8.496;mm
;;;YMAX-Y;0.5181;RMS

Process values - EO related;Result;Entry;Exit;XMIN-X;XMIN-Y;XMAX-X;XMAX-Y;YMIN-Y;YMIN-X;YMAX-Y;YMAX-X;Calculated result;NOK cause;Violation X;Violation Y;Ref X;Ref Y;Switch force;Y-Diff;X-Diff;Force deviation ratio;Click ratio;Contact edge
;;;;mm;RMS;mm;RMS;RMS;mm;RMS;mm;-;-;-;-;-;-;-;-;-;-;-;-;
EO-01;OK;8.238;;;;;;;;;;;;;;;;
EO-02;OK;;;;;;;;;;;0.2582;;;;;;
EO-03;OK;;;;;;;;;;;0.4964;;;;;;
EO-04;None;
EO-05;None;
EO-06;None;
EO-07;None;
EO-08;None;
EO-09;None;
EO-10;None;


















Evaluation objects settings;Reaction;X reference;Y-Reference;XMin;XMax;YMin;YMax;Entry;Exit;Curve part;Catch zone X;Catch zone Y;EO Name;EO description;Re-entry ignored;Generate statistics;X-Hysteresis;Y-Hysteresis;Down sampling rate;Calc limit min;Calc limit max;Grad limit min;Grad limit max;Hyst limit min;Hyst limit max;Speed limit min;Speed limit max;Time limit min;Time limit max;Is curve inside box;GetRef type;CalcInput1 | dx;CalcInput2 | dx;Calc operation;Average limit min;Average limit max;Break max bending;Visualization offset X;Visualization offset Y;-;-;-
EO-01;LINE-X;ABSOLUTE;ABSOLUTE;8.037;8.473;0.1000;;BELOW;NONE;ANY;+50%;+0%;;;FALSE;TRUE;0.0;0.0;1;;;;;;;;;;;;;;;;;;;0.000;0.0000;;;
EO-02;CALC;ABSOLUTE;ABSOLUTE;-0.409;;1.5166;;NONE;NONE;ANY;+0%;+0%;;;FALSE;TRUE;0.0;0.0;1;0.000000;0.500000;;;;;;;;;;;PV_TABLE_CURVE | YMAX-X;EO-01 | ENTRY;Subtraction;;;;0.000;0.0000;;;
EO-03;CALC;ABSOLUTE;ABSOLUTE;10.518;;1.3638;;NONE;NONE;ANY;+0%;+0%;;;FALSE;TRUE;0.0;0.0;1;0.000000;1.000000;;;;;;;;;;;PV_TABLE_CURVE | YMAX-Y;PV_TABLE_CURVE | YMIN-Y;Subtraction;;;;0.000;0.0000;;;
EO-04;OFF
EO-05;OFF
EO-06;OFF
EO-07;OFF
EO-08;OFF
EO-09;OFF
EO-10;OFF



















Switch signal settings;Channel;Threshold at;;Trigger from;Reference;Latch until
Type S1;X;10.370;mm;LEFT;ABSOLUTE;None
Type S2;OFF

















Device information
Device type;maXYmos TL
Device type number;5877A0
Device serial number;4915792
Firmware version;1.1.12 (r21150-TL_v1.1.x)
-
-
-
-
-
IP Address;192.168.21.20
Network name;Maxymos 2
Profibus address;10
-
-
-
Station name;Maxymos 2
Company name;
Comment;











Channel-X settings
Use the settings from global setup;True
Sensor-X type;Potentiometer
Unit;mm
Used range from;8.000;mm
Used range to;12.000;mm
Decimal places;XXX.XXX
Scaling by;Teach-In
Point 1;-0.380;mm;16.488;%
Point 2;72.105;mm;72.105;%
Invert signal;FALSE
Filter;OFF
Test point;0.000;mm
Tolerance;0.010;mm
Enable sensor test by dig-input;FALSE
Zoom from;0.000;mm
Zoom to;100.000;mm
Master Measurement Enable;FALSE
Master Measurement Nominal Position;0.000;mm
Encoder interpolation factor;-
Encoder electrical interface;-
Encoder referencing type;-
Encoder referencing edge;-
Encoder pulses per minute;-
Encoder use every nth-mark;-
Reference;-
Encoder reference points;-
Encoder coding;-
Encoder width;-
Encoder optimization;-
Encoder clock frequency;-
Termination resistor;-








Channel-Y settings
Use the settings from global setup;True
Sensor-Y type;Â±10V
Unit;RMS
Used range from;0.0000;RMS
Used range to;10.0000;RMS
Decimal places;XX.XXXX
Scaling by;Calibration Sheet
Sensitivity;1000.0000;RMS;-4.000;mV/V
Zero point;0.0000;RMS;0.000;mV/V
Invert signal;FALSE
Filter;OFF
Piezo reset;-
Test point;0.0000;RMS
Tolerance;0.0000;RMS
Enable sensor test by dig-input;FALSE
Zoom from;0.0000;RMS
Zoom to;1000.0000;RMS












Cycle control settings
Use the settings from global setup;True
Measuring function;Y (X)
Delta-X;User-Defined;0.00500;mm
START condition;Threshold-X;7.500;mm;Trigger from;LEFT
STOP condition;Threshold-X;12.000;mm;Trigger from;LEFT
Cycle time out;2.00;s
Turning point RIGHT;YMAX
Turning point LEFT;NONE
Cut curve at;NONE










Evaluation settings
Capture only first NOK-EO for statistics;False
Hysteresis X;0.0;%
Hysteresis Y;0.0;%






Trigger Y settings
Threshold at;1.2839;RMS
Value X at TRIGGER Y;0.000;mm
Approach from;BELOW






Block settings
Value X at block;XMAX
Block at;0.000;mm







Measuring curve
Number of measuring points;725
Ref. Graph on;ABSOLUTE
Curve segments;0;0;132;725;


Time;X(ABSOLUTE);Y;X (ABSOLUTE)


s;mm;RMS;mm
0.0000;7.67256;0.10305;7.67256
0.0003;7.68075;0.10008;7.68075
0.0006;7.68593;0.09699;7.68593
0.0007;7.69193;0.09600;7.69193
0.0008;7.69706;0.09475;7.69706
0.0009;7.70267;0.09375;7.70267
0.0011;7.70875;0.09248;7.70875
0.0012;7.71410;0.09174;7.71410
0.0013;7.71991;0.09012;7.71991
0.0014;7.72533;0.08931;7.72533
0.0016;7.73036;0.08808;7.73036
0.0018;7.73670;0.08681;7.73670
0.0022;7.74196;0.08393;7.74196
0.0023;7.74920;0.08355;7.74920
0.0024;7.75524;0.08267;7.75524
0.0027;7.76112;0.08266;7.76112
0.0031;7.76634;0.08419;7.76634
0.0033;7.77212;0.08524;7.77212
0.0035;7.77790;0.08574;7.77790
0.0037;7.78447;0.08618;7.78447
0.0040;7.78961;0.08626;7.78961
0.0042;7.79476;0.08603;7.79476
0.0044;7.80070;0.08568;7.80070
0.0048;7.80760;0.08490;7.80760
0.0054;7.81397;0.08258;7.81397
0.0061;7.81940;0.07969;7.81940
0.0068;7.82498;0.07625;7.82498
0.0069;7.83018;0.07578;7.83018
0.0074;7.83614;0.07258;7.83614
0.0083;7.84200;0.06823;7.84200
0.0087;7.84756;0.06597;7.84756
0.0090;7.85400;0.06453;7.85400
0.0095;7.85979;0.06215;7.85979
0.0099;7.86607;0.06017;7.86607
0.0100;7.87109;0.05945;7.87109
0.0103;7.87730;0.05847;7.87730
0.0106;7.88316;0.05709;7.88316
0.0111;7.88981;0.05521;7.88981
0.0115;7.89560;0.05404;7.89560
0.0120;7.90110;0.05267;7.90110
0.0123;7.90634;0.05148;7.90634
0.0125;7.91135;0.05083;7.91135
0.0127;7.91729;0.05045;7.91729
0.0129;7.92309;0.04984;7.92309
0.0131;7.92960;0.04925;7.92960
0.0132;7.93593;0.04885;7.93593
0.0135;7.94267;0.04788;7.94267
0.0137;7.94773;0.04758;7.94773
0.0140;7.95295;0.04657;7.95295
0.0143;7.95962;0.04581;7.95962
0.0145;7.96599;0.04545;7.96599
0.0147;7.97143;0.04492;7.97143
0.0149;7.97698;0.04467;7.97698
0.0151;7.98263;0.04386;7.98263
0.0153;7.98809;0.04346;7.98809
0.0156;7.99320;0.04279;7.99320
0.0159;7.99951;0.04213;7.99951
0.0162;8.00550;0.04170;8.00550
0.0163;8.01138;0.04140;8.01138
0.0165;8.01707;0.04109;8.01707
0.0167;8.02298;0.04099;8.02298
0.0168;8.02872;0.04062;8.02872
0.0170;8.03446;0.04013;8.03446
0.0172;8.04134;0.04001;8.04134
0.0174;8.04795;0.03957;8.04795
0.0175;8.05521;0.03931;8.05521
0.0177;8.06196;0.03914;8.06196
0.0179;8.06871;0.03886;8.06871
0.0180;8.07576;0.03860;8.07576
0.0180;8.08084;0.03852;8.08084
0.0182;8.08885;0.03803;8.08885
0.0184;8.09407;0.03791;8.09407
0.0187;8.10049;0.03743;8.10049
0.0190;8.10672;0.03702;8.10672
0.0191;8.11177;0.03685;8.11177
0.0192;8.11732;0.03686;8.11732
0.0195;8.12241;0.03624;8.12241
0.0198;8.12848;0.03579;8.12848
0.0200;8.13374;0.03571;8.13374
0.0201;8.14031;0.03555;8.14031
0.0203;8.14756;0.03525;8.14756
0.0204;8.15309;0.03519;8.15309
0.0204;8.15981;0.03482;8.15981
0.0205;8.16501;0.03492;8.16501
0.0207;8.17245;0.03492;8.17245
0.0208;8.17759;0.03461;8.17759
0.0209;8.18451;0.03464;8.18451
0.0210;8.18987;0.03454;8.18987
0.0212;8.19600;0.03446;8.19600
0.0214;8.20135;0.03412;8.20135
0.0216;8.20792;0.03407;8.20792
0.0218;8.21474;0.03479;8.21474
0.0220;8.22200;0.04066;8.22200
0.0222;8.22814;0.06103;8.22814
0.0223;8.23349;0.08414;8.23349
0.0225;8.24063;0.11090;8.24063
0.0226;8.24587;0.12994;8.24587
0.0227;8.25255;0.14880;8.25255
0.0228;8.25866;0.16697;8.25866
0.0228;8.26537;0.18493;8.26537
0.0229;8.27401;0.20231;8.27401
0.0230;8.27977;0.21948;8.27977
0.0232;8.28531;0.24472;8.28531
0.0233;8.29201;0.27041;8.29201
0.0235;8.29903;0.29594;8.29903
0.0236;8.30741;0.31274;8.30741
0.0237;8.31755;0.32894;8.31755
0.0237;8.32381;0.33682;8.32381
0.0238;8.32998;0.34464;8.32998
0.0239;8.33763;0.35982;8.33763
0.0240;8.34360;0.38121;8.34360
0.0242;8.34958;0.40644;8.34958
0.0243;8.35635;0.41800;8.35635
0.0244;8.36626;0.42894;8.36626
0.0245;8.37315;0.43896;8.37315
0.0246;8.38268;0.44834;8.38268
0.0246;8.38821;0.45270;8.38821
0.0247;8.39611;0.46085;8.39611
0.0248;8.40361;0.46839;8.40361
0.0250;8.40863;0.47849;8.40863
0.0251;8.41492;0.48734;8.41492
0.0253;8.42223;0.49708;8.42223
0.0254;8.43144;0.50099;8.43144
0.0254;8.43772;0.50293;8.43772
0.0255;8.44399;0.50597;8.44399
0.0256;8.45350;0.50887;8.45350
0.0257;8.45900;0.51024;8.45900
0.0258;8.46610;0.51239;8.46610
0.0259;8.47114;0.51437;8.47114
0.0260;8.47639;0.51574;8.47639
0.0261;8.48444;0.51738;8.48444
0.0262;8.48989;0.51794;8.48989
0.0263;8.49592;0.51813;8.49592
0.0264;8.50190;0.51809;8.50190
0.0265;8.50771;0.51796;8.50771
0.0266;8.51512;0.51721;8.51512
0.0267;8.52109;0.51646;8.52109
0.0268;8.52626;0.51546;8.52626
0.0269;8.53589;0.51351;8.53589
0.0271;8.54303;0.51095;8.54303
0.0272;8.54947;0.50809;8.54947
0.0274;8.55492;0.50488;8.55492
0.0275;8.56300;0.50255;8.56300
0.0276;8.56812;0.49884;8.56812
0.0277;8.57428;0.49611;8.57428
0.0278;8.58143;0.49176;8.58143
0.0279;8.58894;0.48886;8.58894
0.0281;8.59561;0.48424;8.59561
0.0282;8.60126;0.48092;8.60126
0.0283;8.60895;0.47589;8.60895
0.0285;8.61419;0.46905;8.61419
0.0287;8.62223;0.46186;8.62223
0.0288;8.62834;0.45631;8.62834
0.0293;8.63389;0.43730;8.63389
0.0295;8.64083;0.43150;8.64083
0.0296;8.64769;0.42562;8.64769
0.0298;8.65294;0.41755;8.65294
0.0300;8.65888;0.40773;8.65888
0.0303;8.66447;0.39778;8.66447
0.0306;8.66959;0.38397;8.66959
0.0312;8.67166;0.36242;8.67166
0.0317;8.67404;0.34174;8.67404
0.0322;8.67172;0.32147;8.67172
0.0328;8.67289;0.30078;8.67289
0.0334;8.67552;0.27924;8.67552
0.0340;8.68077;0.25936;8.68077
0.0346;8.68626;0.24221;8.68626
0.0349;8.69150;0.23261;8.69150
0.0351;8.69759;0.22870;8.69759
0.0352;8.70311;0.22470;8.70311
0.0354;8.70888;0.22099;8.70888
0.0355;8.71525;0.21854;8.71525
0.0356;8.72071;0.21471;8.72071
0.0357;8.72710;0.21252;8.72710
0.0359;8.73236;0.20879;8.73236
0.0360;8.73928;0.20648;8.73928
0.0361;8.74705;0.20291;8.74705
0.0362;8.75298;0.19946;8.75298
0.0364;8.75983;0.19626;8.75983
0.0366;8.76529;0.19192;8.76529
0.0368;8.77140;0.18747;8.77140
0.0369;8.77754;0.18432;8.77754
0.0370;8.78256;0.18219;8.78256
0.0372;8.78904;0.17818;8.78904
0.0373;8.79614;0.17511;8.79614
0.0374;8.80400;0.17320;8.80400
0.0376;8.80946;0.17022;8.80946
0.0377;8.81471;0.16835;8.81471
0.0378;8.81974;0.16665;8.81974
0.0379;8.82683;0.16489;8.82683
0.0380;8.83313;0.16294;8.83313
0.0381;8.84120;0.16137;8.84120
0.0383;8.84652;0.15783;8.84652
0.0384;8.85249;0.15445;8.85249
0.0387;8.85977;0.15030;8.85977
0.0388;8.86641;0.14887;8.86641
0.0389;8.87144;0.14706;8.87144
0.0390;8.87746;0.14576;8.87746
0.0391;8.88638;0.14330;8.88638
0.0392;8.89287;0.14179;8.89287
0.0394;8.90019;0.13970;8.90019
0.0395;8.90519;0.13723;8.90519
0.0396;8.91152;0.13539;8.91152
0.0398;8.91800;0.13304;8.91800
0.0400;8.92493;0.13048;8.92493
0.0402;8.93011;0.12705;8.93011
0.0404;8.93576;0.12509;8.93576
0.0405;8.94402;0.12373;8.94402
0.0406;8.95078;0.12250;8.95078
0.0407;8.95801;0.12127;8.95801
0.0408;8.96314;0.12014;8.96314
0.0408;8.96905;0.11879;8.96905
0.0409;8.97696;0.11733;8.97696
0.0412;8.98274;0.11435;8.98274
0.0414;8.98888;0.11211;8.98888
0.0416;8.99592;0.10968;8.99592
0.0418;9.00271;0.10682;9.00271
0.0420;9.00847;0.10470;9.00847
0.0422;9.01579;0.10263;9.01579
0.0424;9.02089;0.10064;9.02089
0.0426;9.02813;0.09843;9.02813
0.0427;9.03371;0.09767;9.03371
0.0430;9.03921;0.09460;9.03921
0.0431;9.04518;0.09348;9.04518
0.0433;9.05297;0.09155;9.05297
0.0435;9.05982;0.08970;9.05982
0.0437;9.06682;0.08813;9.06682
0.0438;9.07264;0.08690;9.07264
0.0442;9.07840;0.08419;9.07840
0.0444;9.08445;0.08225;9.08445
0.0446;9.08986;0.08081;9.08986
0.0451;9.09585;0.07722;9.09585
0.0454;9.10196;0.07503;9.10196
0.0457;9.10808;0.07326;9.10808
0.0458;9.11510;0.07238;9.11510
0.0460;9.12134;0.07158;9.12134
0.0461;9.12745;0.07081;9.12745
0.0463;9.13297;0.06995;9.13297
0.0465;9.13852;0.06890;9.13852
0.0466;9.14420;0.06863;9.14420
0.0468;9.15096;0.06753;9.15096
0.0469;9.15824;0.06671;9.15824
0.0471;9.16333;0.06599;9.16333
0.0473;9.16894;0.06486;9.16894
0.0474;9.17418;0.06399;9.17418
0.0476;9.17940;0.06328;9.17940
0.0477;9.18492;0.06257;9.18492
0.0480;9.19157;0.06117;9.19157
0.0482;9.19756;0.06017;9.19756
0.0483;9.20325;0.05965;9.20325
0.0484;9.20882;0.05940;9.20882
0.0487;9.21424;0.05857;9.21424
0.0489;9.22086;0.05778;9.22086
0.0490;9.22628;0.05744;9.22628
0.0491;9.23234;0.05702;9.23234
0.0492;9.24203;0.05668;9.24203
0.0492;9.24790;0.05637;9.24790
0.0494;9.25373;0.05590;9.25373
0.0496;9.26015;0.05513;9.26015
0.0498;9.26532;0.05482;9.26532
0.0500;9.27167;0.05397;9.27167
0.0503;9.27674;0.05329;9.27674
0.0504;9.28310;0.05259;9.28310
0.0508;9.29061;0.05147;9.29061
0.0510;9.29632;0.05116;9.29632
0.0512;9.30257;0.05064;9.30257
0.0515;9.30798;0.05000;9.30798
0.0516;9.31378;0.04953;9.31378
0.0517;9.31943;0.04917;9.31943
0.0521;9.32556;0.04845;9.32556
0.0524;9.33067;0.04782;9.33067
0.0526;9.33658;0.04733;9.33658
0.0529;9.34193;0.04639;9.34193
0.0530;9.34774;0.04616;9.34774
0.0533;9.35288;0.04572;9.35288
0.0535;9.35918;0.04524;9.35918
0.0537;9.36434;0.04495;9.36434
0.0540;9.37008;0.04427;9.37008
0.0541;9.37615;0.04386;9.37615
0.0543;9.38202;0.04359;9.38202
0.0545;9.38781;0.04318;9.38781
0.0547;9.39366;0.04282;9.39366
0.0548;9.39995;0.04259;9.39995
0.0550;9.40752;0.04225;9.40752
0.0552;9.41360;0.04188;9.41360
0.0554;9.41867;0.04153;9.41867
0.0557;9.42525;0.04114;9.42525
0.0559;9.43070;0.04072;9.43070
0.0562;9.43578;0.04057;9.43578
0.0563;9.44109;0.04049;9.44109
0.0565;9.44764;0.04008;9.44764
0.0567;9.45457;0.03979;9.45457
0.0568;9.46080;0.03971;9.46080
0.0569;9.46767;0.03942;9.46767
0.0570;9.47325;0.03925;9.47325
0.0572;9.47885;0.03893;9.47885
0.0574;9.48476;0.03874;9.48476
0.0577;9.49057;0.03840;9.49057
0.0579;9.49590;0.03814;9.49590
0.0581;9.50330;0.03796;9.50330
0.0583;9.50885;0.03761;9.50885
0.0586;9.51506;0.03736;9.51506
0.0588;9.52145;0.03715;9.52145
0.0589;9.52725;0.03700;9.52725
0.0591;9.53425;0.03671;9.53425
0.0594;9.53953;0.03639;9.53953
0.0596;9.54670;0.03606;9.54670
0.0600;9.55254;0.03570;9.55254
0.0602;9.55955;0.03540;9.55955
0.0603;9.56465;0.03518;9.56465
0.0605;9.57165;0.03507;9.57165
0.0606;9.57732;0.03489;9.57732
0.0607;9.58483;0.03469;9.58483
0.0608;9.59014;0.03453;9.59014
0.0610;9.59604;0.03413;9.59604
0.0612;9.60185;0.03405;9.60185
0.0616;9.60694;0.03328;9.60694
0.0617;9.61372;0.03326;9.61372
0.0620;9.61986;0.03267;9.61986
0.0623;9.62541;0.03241;9.62541
0.0624;9.63102;0.03241;9.63102
0.0627;9.63630;0.03189;9.63630
0.0629;9.64211;0.03167;9.64211
0.0630;9.64788;0.03174;9.64788
0.0633;9.65558;0.03166;9.65558
0.0634;9.66121;0.03155;9.66121
0.0635;9.66630;0.03139;9.66630
0.0636;9.67163;0.03130;9.67163
0.0638;9.67727;0.03137;9.67727
0.0640;9.68235;0.03117;9.68235
0.0642;9.68931;0.03090;9.68931
0.0643;9.69500;0.03088;9.69500
0.0645;9.70161;0.03054;9.70161
0.0647;9.70697;0.03043;9.70697
0.0648;9.71339;0.03040;9.71339
0.0650;9.71867;0.03013;9.71867
0.0651;9.72565;0.03021;9.72565
0.0652;9.73359;0.03027;9.73359
0.0653;9.74023;0.02997;9.74023
0.0654;9.74554;0.02998;9.74554
0.0655;9.75138;0.02981;9.75138
0.0656;9.75687;0.02979;9.75687
0.0659;9.76244;0.02973;9.76244
0.0659;9.76774;0.02965;9.76774
0.0661;9.77332;0.02946;9.77332
0.0663;9.77881;0.02947;9.77881
0.0665;9.78385;0.02932;9.78385
0.0667;9.79037;0.02915;9.79037
0.0669;9.79703;0.02897;9.79703
0.0671;9.80544;0.02902;9.80544
0.0673;9.81074;0.02882;9.81074
0.0674;9.81588;0.02881;9.81588
0.0675;9.82260;0.02863;9.82260
0.0676;9.82903;0.02870;9.82903
0.0677;9.83416;0.02865;9.83416
0.0682;9.83933;0.02819;9.83933
0.0685;9.84670;0.02820;9.84670
0.0687;9.85287;0.02796;9.85287
0.0688;9.85836;0.02798;9.85836
0.0690;9.86547;0.02788;9.86547
0.0694;9.87100;0.02780;9.87100
0.0695;9.87632;0.02794;9.87632
0.0697;9.88195;0.02794;9.88195
0.0698;9.88910;0.02794;9.88910
0.0700;9.89478;0.02809;9.89478
0.0703;9.90146;0.02804;9.90146
0.0704;9.90690;0.02799;9.90690
0.0706;9.91304;0.02793;9.91304
0.0710;9.91822;0.02796;9.91822
0.0714;9.92368;0.02835;9.92368
0.0716;9.92946;0.02836;9.92946
0.0718;9.93756;0.02844;9.93756
0.0719;9.94360;0.02847;9.94360
0.0721;9.94923;0.02846;9.94923
0.0722;9.95521;0.02857;9.95521
0.0724;9.96246;0.02847;9.96246
0.0727;9.96805;0.02862;9.96805
0.0729;9.97359;0.02871;9.97359
0.0731;9.98147;0.02880;9.98147
0.0733;9.98806;0.02898;9.98806
0.0735;9.99458;0.02885;9.99458
0.0737;10.00010;0.02889;10.00010
0.0741;10.00664;0.02893;10.00664
0.0743;10.01224;0.02884;10.01224
0.0745;10.01748;0.02873;10.01748
0.0747;10.02613;0.02868;10.02613
0.0749;10.03352;0.02842;10.03352
0.0752;10.03867;0.02852;10.03867
0.0753;10.04399;0.02834;10.04399
0.0754;10.04915;0.02838;10.04915
0.0755;10.05466;0.02838;10.05466
0.0757;10.06250;0.02806;10.06250
0.0758;10.06762;0.02795;10.06762
0.0759;10.07373;0.02799;10.07373
0.0761;10.07879;0.02788;10.07879
0.0763;10.08575;0.02783;10.08575
0.0764;10.09151;0.02765;10.09151
0.0766;10.09826;0.02760;10.09826
0.0767;10.10358;0.02743;10.10358
0.0768;10.10892;0.02738;10.10892
0.0770;10.11532;0.02726;10.11532
0.0774;10.12073;0.02690;10.12073
0.0778;10.12664;0.02679;10.12664
0.0781;10.13255;0.02659;10.13255
0.0783;10.14023;0.02656;10.14023
0.0784;10.14597;0.02648;10.14597
0.0785;10.15435;0.02662;10.15435
0.0786;10.15958;0.02643;10.15958
0.0787;10.16602;0.02648;10.16602
0.0790;10.17150;0.02631;10.17150
0.0792;10.17658;0.02637;10.17658
0.0797;10.18194;0.02617;10.18194
0.0799;10.18850;0.02623;10.18850
0.0800;10.19368;0.02618;10.19368
0.0802;10.19903;0.02613;10.19903
0.0804;10.20556;0.02602;10.20556
0.0807;10.21215;0.02590;10.21215
0.0809;10.21754;0.02586;10.21754
0.0811;10.22423;0.02577;10.22423
0.0812;10.23026;0.02564;10.23026
0.0814;10.23631;0.02562;10.23631
0.0815;10.24318;0.02547;10.24318
0.0817;10.24843;0.02553;10.24843
0.0820;10.25533;0.02531;10.25533
0.0821;10.26136;0.02517;10.26136
0.0822;10.26688;0.02511;10.26688
0.0824;10.27196;0.02533;10.27196
0.0825;10.27810;0.02508;10.27810
0.0827;10.28369;0.02500;10.28369
0.0829;10.28900;0.02491;10.28900
0.0833;10.29556;0.02464;10.29556
0.0836;10.30144;0.02459;10.30144
0.0838;10.30673;0.02462;10.30673
0.0840;10.31224;0.02474;10.31224
0.0842;10.31855;0.02464;10.31855
0.0843;10.32417;0.02461;10.32417
0.0846;10.33000;0.02482;10.33000
0.0849;10.33621;0.02463;10.33621
0.0850;10.34171;0.02473;10.34171
0.0851;10.34721;0.02480;10.34721
0.0854;10.35538;0.02502;10.35538
0.0855;10.36201;0.02494;10.36201
0.0858;10.36829;0.02506;10.36829
0.0861;10.37403;0.02506;10.37403
0.0864;10.38023;0.02515;10.38023
0.0866;10.38692;0.02550;10.38692
0.0868;10.39258;0.02542;10.39258
0.0872;10.39881;0.02552;10.39881
0.0873;10.40470;0.02550;10.40470
0.0875;10.41072;0.02573;10.41072
0.0876;10.41651;0.02585;10.41651
0.0878;10.42282;0.02586;10.42282
0.0880;10.42988;0.02588;10.42988
0.0883;10.43551;0.02591;10.43551
0.0884;10.44251;0.02601;10.44251
0.0885;10.45030;0.02613;10.45030
0.0886;10.45603;0.02611;10.45603
0.0887;10.46110;0.02607;10.46110
0.0889;10.46727;0.02616;10.46727
0.0891;10.47462;0.02619;10.47462
0.0895;10.48054;0.02629;10.48054
0.0898;10.48691;0.02633;10.48691
0.0900;10.49221;0.02627;10.49221
0.0902;10.49831;0.02649;10.49831
0.0905;10.50347;0.02650;10.50347
0.0908;10.50887;0.02643;10.50887
0.0910;10.51493;0.02639;10.51493
0.0913;10.52027;0.02634;10.52027
0.0914;10.52572;0.02640;10.52572
0.0917;10.53093;0.02648;10.53093
0.0918;10.53643;0.02651;10.53643
0.0921;10.54181;0.02669;10.54181
0.0922;10.54758;0.02663;10.54758
0.0924;10.55263;0.02672;10.55263
0.0927;10.55764;0.02696;10.55764
0.0929;10.56363;0.02690;10.56363
0.0931;10.56876;0.02719;10.56876
0.0932;10.57545;0.02714;10.57545
0.0933;10.58219;0.02711;10.58219
0.0935;10.58743;0.02718;10.58743
0.0936;10.59453;0.02723;10.59453
0.0937;10.59965;0.02718;10.59965
0.0939;10.60608;0.02709;10.60608
0.0943;10.61187;0.02724;10.61187
0.0945;10.61748;0.02736;10.61748
0.0947;10.62322;0.02737;10.62322
0.0949;10.62861;0.02734;10.62861
0.0952;10.63446;0.02749;10.63446
0.0956;10.64136;0.02749;10.64136
0.0958;10.64676;0.02757;10.64676
0.0960;10.65210;0.02761;10.65210
0.0963;10.65791;0.02749;10.65791
0.0966;10.66524;0.02746;10.66524
0.0967;10.67144;0.02754;10.67144
0.0968;10.67695;0.02759;10.67695
0.0969;10.68334;0.02757;10.68334
0.0970;10.68922;0.02759;10.68922
0.0972;10.69461;0.02781;10.69461
0.0974;10.69998;0.02785;10.69998
0.0977;10.70586;0.02777;10.70586
0.0979;10.71156;0.02769;10.71156
0.0981;10.71917;0.02772;10.71917
0.0983;10.72631;0.02752;10.72631
0.0985;10.73291;0.02743;10.73291
0.0987;10.73932;0.02748;10.73932
0.0989;10.74580;0.02742;10.74580
0.0993;10.75127;0.02724;10.75127
0.0995;10.75765;0.02723;10.75765
0.0996;10.76266;0.02733;10.76266
0.0997;10.76775;0.02721;10.76775
0.0999;10.77428;0.02705;10.77428
0.1001;10.77934;0.02706;10.77934
0.1003;10.78471;0.02699;10.78471
0.1005;10.79016;0.02709;10.79016
0.1007;10.79568;0.02688;10.79568
0.1010;10.80099;0.02678;10.80099
0.1012;10.80601;0.02667;10.80601
0.1015;10.81168;0.02632;10.81168
0.1018;10.81943;0.02641;10.81943
0.1019;10.82477;0.02633;10.82477
0.1021;10.83013;0.02617;10.83013
0.1024;10.83543;0.02620;10.83543
0.1026;10.84110;0.02609;10.84110
0.1028;10.84640;0.02607;10.84640
0.1031;10.85235;0.02583;10.85235
0.1032;10.85799;0.02598;10.85799
0.1035;10.86584;0.02579;10.86584
0.1036;10.87244;0.02578;10.87244
0.1039;10.87974;0.02558;10.87974
0.1040;10.88498;0.02545;10.88498
0.1042;10.89066;0.02544;10.89066
0.1044;10.89699;0.02542;10.89699
0.1050;10.90355;0.02513;10.90355
0.1053;10.91032;0.02520;10.91032
0.1054;10.91568;0.02520;10.91568
0.1056;10.92182;0.02508;10.92182
0.1058;10.92697;0.02485;10.92697
0.1061;10.93292;0.02487;10.93292
0.1064;10.93849;0.02492;10.93849
0.1067;10.94361;0.02498;10.94361
0.1069;10.95060;0.02467;10.95060
0.1072;10.95785;0.02450;10.95785
0.1074;10.96478;0.02474;10.96478
0.1079;10.97004;0.02461;10.97004
0.1080;10.97532;0.02457;10.97532
0.1081;10.98128;0.02442;10.98128
0.1084;10.98774;0.02442;10.98774
0.1086;10.99495;0.02444;10.99495
0.1088;11.00048;0.02440;11.00048
0.1090;11.00682;0.02426;11.00682
0.1094;11.01358;0.02424;11.01358
0.1096;11.02049;0.02438;11.02049
0.1101;11.02642;0.02423;11.02642
0.1104;11.03160;0.02437;11.03160
0.1108;11.03764;0.02445;11.03764
0.1111;11.04294;0.02454;11.04294
0.1115;11.04798;0.02463;11.04798
0.1116;11.05380;0.02464;11.05380
0.1120;11.05919;0.02615;11.05919
0.1123;11.06426;0.02928;11.06426
0.1126;11.06965;0.03319;11.06965
0.1130;11.07516;0.03835;11.07516
0.1132;11.08063;0.04035;11.08063
0.1134;11.08626;0.04186;11.08626
0.1137;11.09360;0.04403;11.09360
0.1141;11.10099;0.04613;11.10099
0.1143;11.10775;0.04678;11.10775
0.1144;11.11467;0.04718;11.11467
0.1146;11.12003;0.04763;11.12003
0.1148;11.12503;0.04791;11.12503
0.1150;11.13043;0.04828;11.13043
0.1152;11.13617;0.04852;11.13617
0.1155;11.14168;0.04841;11.14168
0.1158;11.14715;0.04802;11.14715
0.1163;11.15257;0.04759;11.15257
0.1165;11.15782;0.04703;11.15782
0.1172;11.16306;0.04569;11.16306
0.1176;11.16833;0.04473;11.16833
0.1180;11.17378;0.04386;11.17378
0.1181;11.17912;0.04364;11.17912
0.1184;11.18507;0.04278;11.18507
0.1187;11.19104;0.04216;11.19104
0.1188;11.19652;0.04165;11.19652
0.1190;11.20164;0.04114;11.20164
0.1192;11.20751;0.04062;11.20751
0.1196;11.21344;0.03955;11.21344
0.1200;11.21930;0.03844;11.21930
0.1204;11.22465;0.03764;11.22465
0.1207;11.23089;0.03683;11.23089
0.1211;11.23641;0.03621;11.23641
0.1213;11.24273;0.03549;11.24273
0.1217;11.24784;0.03463;11.24784
0.1219;11.25305;0.03426;11.25305
0.1220;11.25854;0.03398;11.25854
0.1222;11.26386;0.03373;11.26386
0.1225;11.27042;0.03303;11.27042
0.1226;11.27581;0.03276;11.27581
0.1229;11.28085;0.03225;11.28085
0.1232;11.28674;0.03177;11.28674
0.1236;11.29190;0.03129;11.29190
0.1239;11.29743;0.03071;11.29743
0.1243;11.30295;0.03028;11.30295
0.1247;11.30909;0.02991;11.30909
0.1249;11.31473;0.02975;11.31473
0.1252;11.32119;0.02955;11.32119
0.1255;11.32726;0.02941;11.32726
0.1257;11.33459;0.02937;11.33459
0.1259;11.34068;0.02937;11.34068
0.1260;11.34695;0.02927;11.34695
0.1263;11.35290;0.02918;11.35290
0.1265;11.35819;0.02892;11.35819
0.1270;11.36419;0.02885;11.36419
0.1272;11.37105;0.02871;11.37105
0.1274;11.37617;0.02884;11.37617
0.1276;11.38160;0.02864;11.38160
0.1278;11.38789;0.02848;11.38789
0.1280;11.39466;0.02851;11.39466
0.1281;11.40054;0.02848;11.40054
0.1284;11.40559;0.02831;11.40559
0.1289;11.41094;0.02810;11.41094
0.1292;11.41632;0.02810;11.41632
0.1295;11.42188;0.02810;11.42188
0.1296;11.42765;0.02787;11.42765
0.1297;11.43279;0.02791;11.43279
0.1298;11.44124;0.02785;11.44124
0.1299;11.44629;0.02797;11.44629
0.1300;11.45161;0.02790;11.45161
0.1302;11.45824;0.02788;11.45824
0.1303;11.46530;0.02789;11.46530
0.1305;11.47052;0.02782;11.47052
0.1308;11.47678;0.02773;11.47678
0.1315;11.48201;0.02758;11.48201
0.1321;11.48718;0.02760;11.48718
0.1325;11.49319;0.02761;11.49319
0.1328;11.49849;0.02756;11.49849
0.1336;11.50463;0.02811;11.50463
0.1338;11.51156;0.02796;11.51156
0.1339;11.51836;0.02806;11.51836
0.1341;11.52507;0.02813;11.52507
0.1343;11.53199;0.02829;11.53199
0.1345;11.53750;0.02824;11.53750
0.1347;11.54335;0.02825;11.54335
0.1351;11.54841;0.02815;11.54841
0.1354;11.55343;0.02828;11.55343
0.1355;11.55917;0.02816;11.55917
0.1357;11.56528;0.02825;11.56528
0.1358;11.57191;0.02808;11.57191
0.1361;11.57846;0.02815;11.57846
0.1364;11.58386;0.02798;11.58386
0.1369;11.58987;0.02805;11.58987
0.1373;11.59601;0.02804;11.59601
0.1377;11.60239;0.02802;11.60239
0.1379;11.60774;0.02815;11.60774
0.1381;11.61292;0.02817;11.61292
0.1386;11.61851;0.02806;11.61851
0.1390;11.62476;0.02804;11.62476
0.1391;11.63102;0.02789;11.63102
0.1393;11.63651;0.02777;11.63651
0.1397;11.64273;0.02764;11.64273
0.1402;11.64852;0.02765;11.64852
0.1406;11.65406;0.02721;11.65406
0.1410;11.65914;0.02701;11.65914
0.1413;11.66486;0.02687;11.66486
0.1416;11.65979;0.02681;11.65979
0.1417;11.66776;0.02649;11.66776
0.1419;11.67276;0.02662;11.67276
0.1423;11.67817;0.02635;11.67817
0.1427;11.68409;0.02622;11.68409
0.1428;11.68999;0.02620;11.68999
0.1429;11.69656;0.02624;11.69656
0.1431;11.70179;0.02591;11.70179
0.1434;11.70717;0.02590;11.70717
0.1435;11.71240;0.02569;11.71240
0.1438;11.71849;0.02549;11.71849
0.1439;11.72414;0.02551;11.72414
0.1441;11.72991;0.02545;11.72991
0.1445;11.73615;0.02530;11.73615
0.1448;11.74216;0.02499;11.74216
0.1451;11.74753;0.02496;11.74753
0.1453;11.75256;0.02478;11.75256
0.1454;11.75784;0.02444;11.75784
0.1460;11.76308;0.02422;11.76308
0.1463;11.76942;0.02410;11.76942
0.1469;11.77571;0.02408;11.77571
0.1471;11.78087;0.02377;11.78087
0.1472;11.78704;0.02369;11.78704
0.1474;11.79358;0.02368;11.79358
0.1477;11.79939;0.02351;11.79939
0.1483;11.80628;0.02335;11.80628
0.1485;11.81128;0.02327;11.81128
0.1487;11.81660;0.02308;11.81660
0.1494;11.82242;0.02296;11.82242
0.1497;11.82793;0.02286;11.82793
0.1502;11.83443;0.02274;11.83443
0.1506;11.84046;0.02282;11.84046
0.1508;11.84570;0.02276;11.84570
0.1510;11.85075;0.02286;11.85075
0.1513;11.85714;0.02297;11.85714
0.1518;11.86315;0.02312;11.86315
0.1524;11.86830;0.02343;11.86830
0.1528;11.87350;0.02380;11.87350
0.1531;11.87878;0.02388;11.87878
0.1534;11.88417;0.02400;11.88417
0.1537;11.89181;0.02406;11.89181
0.1538;11.89796;0.02414;11.89796
0.1541;11.90380;0.02430;11.90380
0.1543;11.91002;0.02432;11.91002
0.1547;11.91503;0.02444;11.91503
0.1548;11.92062;0.02430;11.92062
0.1549;11.92568;0.02422;11.92568
0.1553;11.93170;0.02437;11.93170
0.1562;11.93787;0.02405;11.93787
0.1567;11.94364;0.02387;11.94364
0.1571;11.94942;0.02347;11.94942
0.1574;11.95471;0.02332;11.95471
0.1578;11.96030;0.02327;11.96030
0.1582;11.96587;0.02319;11.96587
0.1586;11.97233;0.02278;11.97233
0.1589;11.97793;0.02275;11.97793
0.1593;11.98310;0.02265;11.98310
0.1597;11.98860;0.02222;11.98860
0.1602;11.99409;0.02179;11.99409
0.1603;11.99484;0.02172;11.99484
0.1606;11.99946;0.02180;11.99946
0.1606;12.00060;0.02182;12.00060
