Part protocol
Network name;Part_Maxymos_2_MP-001_2017-03-14_14-32-42_RMS_bl_trans150obr_tepy_034_OK.csv
Protocol version;3.01.00






Result information
Date;2017/03/14
Time;14:32:42
Cycle number;34
Total result;OK
Triggered switch signals
Part serial number;RMS_bl_trans150obr_tepy_034
Measuring program name;Bl_trans
Measuring program number;1
Zero X offset;0.000;mm
Tara Y offset;0.0000;RMS









Process values - curve related
Block X;12.000;mm;XMIN-X;7.666;mm
Block Y;0.0229;RMS;XMIN-Y;0.0250;RMS
Ref X;-;mm;XMAX-X;12.000;mm
Peak-peak X;4.334;mm;XMAX-Y;0.0229;RMS
Peak-peak Y;0.4636;RMS;YMIN-X;11.588;mm
;;;YMIN-Y;0.0208;RMS
;;;YMAX-X;8.499;mm
;;;YMAX-Y;0.4844;RMS

Process values - EO related;Result;Entry;Exit;XMIN-X;XMIN-Y;XMAX-X;XMAX-Y;YMIN-Y;YMIN-X;YMAX-Y;YMAX-X;Calculated result;NOK cause;Violation X;Violation Y;Ref X;Ref Y;Switch force;Y-Diff;X-Diff;Force deviation ratio;Click ratio;Contact edge
;;;;mm;RMS;mm;RMS;RMS;mm;RMS;mm;-;-;-;-;-;-;-;-;-;-;-;-;
EO-01;OK;8.226;;;;;;;;;;;;;;;;
EO-02;OK;;;;;;;;;;;0.2731;;;;;;
EO-03;OK;;;;;;;;;;;0.4636;;;;;;
EO-04;None;
EO-05;None;
EO-06;None;
EO-07;None;
EO-08;None;
EO-09;None;
EO-10;None;


















Evaluation objects settings;Reaction;X reference;Y-Reference;XMin;XMax;YMin;YMax;Entry;Exit;Curve part;Catch zone X;Catch zone Y;EO Name;EO description;Re-entry ignored;Generate statistics;X-Hysteresis;Y-Hysteresis;Down sampling rate;Calc limit min;Calc limit max;Grad limit min;Grad limit max;Hyst limit min;Hyst limit max;Speed limit min;Speed limit max;Time limit min;Time limit max;Is curve inside box;GetRef type;CalcInput1 | dx;CalcInput2 | dx;Calc operation;Average limit min;Average limit max;Break max bending;Visualization offset X;Visualization offset Y;-;-;-
EO-01;LINE-X;ABSOLUTE;ABSOLUTE;8.037;8.473;0.1000;;BELOW;NONE;ANY;+50%;+0%;;;FALSE;TRUE;0.0;0.0;1;;;;;;;;;;;;;;;;;;;0.000;0.0000;;;
EO-02;CALC;ABSOLUTE;ABSOLUTE;-0.409;;1.5166;;NONE;NONE;ANY;+0%;+0%;;;FALSE;TRUE;0.0;0.0;1;0.000000;0.500000;;;;;;;;;;;PV_TABLE_CURVE | YMAX-X;EO-01 | ENTRY;Subtraction;;;;0.000;0.0000;;;
EO-03;CALC;ABSOLUTE;ABSOLUTE;10.518;;1.3638;;NONE;NONE;ANY;+0%;+0%;;;FALSE;TRUE;0.0;0.0;1;0.000000;1.000000;;;;;;;;;;;PV_TABLE_CURVE | YMAX-Y;PV_TABLE_CURVE | YMIN-Y;Subtraction;;;;0.000;0.0000;;;
EO-04;OFF
EO-05;OFF
EO-06;OFF
EO-07;OFF
EO-08;OFF
EO-09;OFF
EO-10;OFF



















Switch signal settings;Channel;Threshold at;;Trigger from;Reference;Latch until
Type S1;X;10.370;mm;LEFT;ABSOLUTE;None
Type S2;OFF

















Device information
Device type;maXYmos TL
Device type number;5877A0
Device serial number;4915792
Firmware version;1.1.12 (r21150-TL_v1.1.x)
-
-
-
-
-
IP Address;192.168.21.20
Network name;Maxymos 2
Profibus address;10
-
-
-
Station name;Maxymos 2
Company name;
Comment;











Channel-X settings
Use the settings from global setup;True
Sensor-X type;Potentiometer
Unit;mm
Used range from;8.000;mm
Used range to;12.000;mm
Decimal places;XXX.XXX
Scaling by;Teach-In
Point 1;-0.380;mm;16.488;%
Point 2;72.105;mm;72.105;%
Invert signal;FALSE
Filter;OFF
Test point;0.000;mm
Tolerance;0.010;mm
Enable sensor test by dig-input;FALSE
Zoom from;0.000;mm
Zoom to;100.000;mm
Master Measurement Enable;FALSE
Master Measurement Nominal Position;0.000;mm
Encoder interpolation factor;-
Encoder electrical interface;-
Encoder referencing type;-
Encoder referencing edge;-
Encoder pulses per minute;-
Encoder use every nth-mark;-
Reference;-
Encoder reference points;-
Encoder coding;-
Encoder width;-
Encoder optimization;-
Encoder clock frequency;-
Termination resistor;-








Channel-Y settings
Use the settings from global setup;True
Sensor-Y type;Â±10V
Unit;RMS
Used range from;0.0000;RMS
Used range to;10.0000;RMS
Decimal places;XX.XXXX
Scaling by;Calibration Sheet
Sensitivity;1000.0000;RMS;-4.000;mV/V
Zero point;0.0000;RMS;0.000;mV/V
Invert signal;FALSE
Filter;OFF
Piezo reset;-
Test point;0.0000;RMS
Tolerance;0.0000;RMS
Enable sensor test by dig-input;FALSE
Zoom from;0.0000;RMS
Zoom to;1000.0000;RMS












Cycle control settings
Use the settings from global setup;True
Measuring function;Y (X)
Delta-X;User-Defined;0.00500;mm
START condition;Threshold-X;7.500;mm;Trigger from;LEFT
STOP condition;Threshold-X;12.000;mm;Trigger from;LEFT
Cycle time out;2.00;s
Turning point RIGHT;YMAX
Turning point LEFT;NONE
Cut curve at;NONE










Evaluation settings
Capture only first NOK-EO for statistics;False
Hysteresis X;0.0;%
Hysteresis Y;0.0;%






Trigger Y settings
Threshold at;1.2839;RMS
Value X at TRIGGER Y;0.000;mm
Approach from;BELOW






Block settings
Value X at block;XMAX
Block at;0.000;mm







Measuring curve
Number of measuring points;729
Ref. Graph on;ABSOLUTE
Curve segments;0;0;133;133;


Time;X(ABSOLUTE);Y;X (ABSOLUTE)


s;mm;RMS;mm
0.0000;7.66645;0.02503;7.66645
0.0003;7.67871;0.02493;7.67871
0.0006;7.68556;0.02476;7.68556
0.0007;7.69070;0.02486;7.69070
0.0008;7.69783;0.02498;7.69783
0.0010;7.70337;0.02486;7.70337
0.0011;7.71195;0.02495;7.71195
0.0013;7.71916;0.02490;7.71916
0.0015;7.72527;0.02491;7.72527
0.0017;7.73094;0.02508;7.73094
0.0018;7.73603;0.02499;7.73603
0.0021;7.74164;0.02540;7.74164
0.0022;7.74764;0.02562;7.74764
0.0024;7.75604;0.02619;7.75604
0.0025;7.76113;0.02694;7.76113
0.0028;7.76729;0.02946;7.76729
0.0031;7.77337;0.03193;7.77337
0.0034;7.77858;0.03391;7.77858
0.0036;7.78519;0.03493;7.78519
0.0040;7.79091;0.03685;7.79091
0.0042;7.79630;0.03752;7.79630
0.0043;7.80136;0.03817;7.80136
0.0046;7.80700;0.03977;7.80700
0.0050;7.81308;0.04627;7.81308
0.0055;7.81821;0.05522;7.81821
0.0063;7.82376;0.06523;7.82376
0.0069;7.82951;0.06836;7.82951
0.0074;7.83464;0.06938;7.83464
0.0077;7.83972;0.06943;7.83972
0.0081;7.84489;0.06925;7.84489
0.0084;7.85014;0.06874;7.85014
0.0087;7.85546;0.06785;7.85546
0.0091;7.86067;0.06684;7.86067
0.0093;7.86625;0.06610;7.86625
0.0096;7.87161;0.06492;7.87161
0.0100;7.87847;0.06336;7.87847
0.0104;7.88375;0.06183;7.88375
0.0105;7.88890;0.06110;7.88890
0.0109;7.89575;0.05942;7.89575
0.0115;7.90080;0.05670;7.90080
0.0118;7.90770;0.05538;7.90770
0.0120;7.91302;0.05446;7.91302
0.0121;7.92033;0.05368;7.92033
0.0122;7.92745;0.05326;7.92745
0.0124;7.93333;0.05260;7.93333
0.0125;7.93869;0.05201;7.93869
0.0127;7.94433;0.05149;7.94433
0.0129;7.94956;0.05042;7.94956
0.0131;7.95526;0.04987;7.95526
0.0133;7.96040;0.04886;7.96040
0.0135;7.96562;0.04786;7.96562
0.0137;7.97152;0.04731;7.97152
0.0140;7.97753;0.04637;7.97753
0.0141;7.98307;0.04589;7.98307
0.0144;7.99021;0.04496;7.99021
0.0146;7.99567;0.04390;7.99567
0.0148;8.00320;0.04325;8.00320
0.0150;8.00872;0.04271;8.00872
0.0152;8.01448;0.04195;8.01448
0.0154;8.01994;0.04149;8.01994
0.0156;8.02506;0.04096;8.02506
0.0157;8.03041;0.04057;8.03041
0.0160;8.03637;0.03986;8.03637
0.0162;8.04137;0.03943;8.04137
0.0164;8.04803;0.03894;8.04803
0.0165;8.05418;0.03854;8.05418
0.0167;8.06056;0.03795;8.06056
0.0170;8.06598;0.03712;8.06598
0.0172;8.07237;0.03681;8.07237
0.0174;8.08035;0.03652;8.08035
0.0176;8.08738;0.03613;8.08738
0.0177;8.09287;0.03572;8.09287
0.0179;8.09788;0.03553;8.09788
0.0181;8.10372;0.03527;8.10372
0.0183;8.10880;0.03492;8.10880
0.0185;8.11446;0.03476;8.11446
0.0189;8.12099;0.03441;8.12099
0.0191;8.12687;0.03424;8.12687
0.0193;8.13430;0.03403;8.13430
0.0194;8.13951;0.03378;8.13951
0.0196;8.14737;0.03365;8.14737
0.0197;8.15265;0.03358;8.15265
0.0198;8.15974;0.03368;8.15974
0.0199;8.16688;0.03351;8.16688
0.0201;8.17445;0.03349;8.17445
0.0202;8.18144;0.03346;8.18144
0.0203;8.18862;0.03332;8.18862
0.0204;8.19578;0.03314;8.19578
0.0207;8.20138;0.03314;8.20138
0.0209;8.20769;0.03340;8.20769
0.0210;8.21406;0.03682;8.21406
0.0213;8.21862;0.06307;8.21862
0.0214;8.22256;0.08659;8.22256
0.0216;8.22838;0.10994;8.22838
0.0216;8.23545;0.12480;8.23545
0.0217;8.24125;0.13937;8.24125
0.0218;8.24627;0.15339;8.24627
0.0219;8.25327;0.16660;8.25327
0.0220;8.26145;0.17957;8.26145
0.0221;8.27058;0.19245;8.27058
0.0222;8.27871;0.20576;8.27871
0.0223;8.28422;0.21970;8.28422
0.0225;8.28993;0.24132;8.28993
0.0226;8.29617;0.25631;8.29617
0.0227;8.30271;0.27170;8.30271
0.0228;8.30946;0.28829;8.30946
0.0228;8.31510;0.29624;8.31510
0.0228;8.32031;0.30410;8.32031
0.0229;8.32716;0.31928;8.32716
0.0230;8.33494;0.33339;8.33494
0.0231;8.34104;0.34698;8.34104
0.0233;8.34700;0.37191;8.34700
0.0234;8.35512;0.38343;8.35512
0.0235;8.36037;0.38869;8.36037
0.0236;8.36948;0.39884;8.36948
0.0237;8.37736;0.40841;8.37736
0.0237;8.38288;0.41271;8.38288
0.0238;8.39149;0.42135;8.39149
0.0239;8.39818;0.42901;8.39818
0.0240;8.40594;0.43640;8.40594
0.0242;8.41108;0.45178;8.41108
0.0244;8.41657;0.45918;8.41657
0.0245;8.42591;0.46557;8.42591
0.0246;8.43158;0.46743;8.43158
0.0246;8.43719;0.46915;8.43719
0.0247;8.44663;0.47233;8.44663
0.0248;8.45490;0.47513;8.45490
0.0249;8.46277;0.47751;8.46277
0.0250;8.47140;0.47948;8.47140
0.0252;8.47698;0.48188;8.47698
0.0252;8.48387;0.48282;8.48387
0.0254;8.48947;0.48430;8.48947
0.0256;8.49576;0.48428;8.49576
0.0256;8.49897;0.48440;8.49897
0.0257;8.50303;0.48429;8.50303
0.0258;8.50964;0.48372;8.50964
0.0259;8.51568;0.48309;8.51568
0.0259;8.52072;0.48254;8.52072
0.0260;8.52848;0.48158;8.52848
0.0261;8.53423;0.48032;8.53423
0.0263;8.54116;0.47817;8.54116
0.0265;8.54871;0.47247;8.54871
0.0266;8.55493;0.47023;8.55493
0.0268;8.56176;0.46550;8.56176
0.0270;8.56816;0.46164;8.56816
0.0271;8.57463;0.45893;8.57463
0.0272;8.58125;0.45620;8.58125
0.0274;8.58842;0.45017;8.58842
0.0276;8.59352;0.44400;8.59352
0.0277;8.59856;0.43907;8.59856
0.0278;8.60604;0.43411;8.60604
0.0280;8.61147;0.42722;8.61147
0.0282;8.61654;0.42029;8.61654
0.0285;8.62193;0.41143;8.62193
0.0290;8.62676;0.39127;8.62676
0.0292;8.63301;0.38224;8.63301
0.0294;8.63835;0.37482;8.63835
0.0300;8.64191;0.35470;8.64191
0.0303;8.64820;0.34195;8.64820
0.0308;8.65340;0.32243;8.65340
0.0314;8.65604;0.30171;8.65604
0.0320;8.65942;0.28050;8.65942
0.0324;8.66498;0.26967;8.66498
0.0328;8.67148;0.25621;8.67148
0.0335;8.67606;0.23499;8.67606
0.0337;8.68215;0.22949;8.68215
0.0340;8.68749;0.22054;8.68749
0.0342;8.69402;0.21541;8.69402
0.0344;8.70000;0.21171;8.70000
0.0345;8.70506;0.20938;8.70506
0.0346;8.71311;0.20682;8.71311
0.0347;8.72133;0.20334;8.72133
0.0348;8.73025;0.20104;8.73025
0.0351;8.73880;0.19319;8.73880
0.0352;8.74472;0.19095;8.74472
0.0353;8.75225;0.18871;8.75225
0.0354;8.75989;0.18651;8.75989
0.0356;8.76564;0.18341;8.76564
0.0357;8.77108;0.18038;8.77108
0.0359;8.77610;0.17626;8.77610
0.0360;8.78271;0.17334;8.78271
0.0362;8.78899;0.16949;8.78899
0.0363;8.79517;0.16778;8.79517
0.0365;8.80139;0.16395;8.80139
0.0367;8.80745;0.16119;8.80745
0.0368;8.81308;0.15877;8.81308
0.0369;8.81861;0.15697;8.81861
0.0370;8.82466;0.15509;8.82466
0.0371;8.82998;0.15347;8.82998
0.0372;8.83620;0.15189;8.83620
0.0373;8.84249;0.14928;8.84249
0.0375;8.84838;0.14676;8.84838
0.0378;8.85472;0.14141;8.85472
0.0380;8.86161;0.13908;8.86161
0.0381;8.86753;0.13760;8.86753
0.0382;8.87353;0.13545;8.87353
0.0383;8.88062;0.13406;8.88062
0.0384;8.88832;0.13179;8.88832
0.0386;8.89335;0.12993;8.89335
0.0387;8.89997;0.12778;8.89997
0.0388;8.90533;0.12648;8.90533
0.0389;8.91230;0.12516;8.91230
0.0391;8.91868;0.12269;8.91868
0.0393;8.92369;0.12018;8.92369
0.0396;8.93135;0.11721;8.93135
0.0397;8.93714;0.11497;8.93714
0.0399;8.94542;0.11253;8.94542
0.0400;8.95073;0.11198;8.95073
0.0401;8.95810;0.11042;8.95810
0.0402;8.96355;0.10984;8.96355
0.0403;8.97140;0.10874;8.97140
0.0404;8.97651;0.10762;8.97651
0.0406;8.98335;0.10502;8.98335
0.0409;8.99143;0.10177;8.99143
0.0410;8.99793;0.10035;8.99793
0.0412;9.00496;0.09834;9.00496
0.0415;9.01090;0.09549;9.01090
0.0418;9.01623;0.09295;9.01623
0.0419;9.02152;0.09171;9.02152
0.0420;9.02852;0.09081;9.02852
0.0422;9.03698;0.08899;9.03698
0.0425;9.04520;0.08661;9.04520
0.0427;9.05305;0.08508;9.05305
0.0428;9.06095;0.08425;9.06095
0.0431;9.06707;0.08180;9.06707
0.0434;9.07370;0.07893;9.07370
0.0436;9.07882;0.07776;9.07882
0.0438;9.08450;0.07668;9.08450
0.0441;9.09049;0.07458;9.09049
0.0444;9.09625;0.07308;9.09625
0.0445;9.10184;0.07186;9.10184
0.0449;9.10875;0.06962;9.10875
0.0452;9.11421;0.06835;9.11421
0.0453;9.12161;0.06759;9.12161
0.0455;9.12801;0.06683;9.12801
0.0456;9.13311;0.06635;9.13311
0.0458;9.13931;0.06531;9.13931
0.0460;9.14496;0.06445;9.14496
0.0461;9.15189;0.06391;9.15189
0.0462;9.15720;0.06324;9.15720
0.0464;9.16238;0.06242;9.16238
0.0465;9.16756;0.06203;9.16756
0.0467;9.17394;0.06125;9.17394
0.0468;9.17982;0.06054;9.17982
0.0469;9.18549;0.06012;9.18549
0.0471;9.19051;0.05905;9.19051
0.0474;9.19619;0.05793;9.19619
0.0475;9.20250;0.05742;9.20250
0.0478;9.20862;0.05645;9.20862
0.0480;9.21364;0.05578;9.21364
0.0481;9.22016;0.05502;9.22016
0.0482;9.22587;0.05446;9.22587
0.0483;9.23222;0.05429;9.23222
0.0484;9.23957;0.05378;9.23957
0.0486;9.24633;0.05317;9.24633
0.0489;9.25218;0.05198;9.25218
0.0491;9.25833;0.05093;9.25833
0.0493;9.26597;0.05030;9.26597
0.0494;9.27161;0.04979;9.27161
0.0496;9.27682;0.04927;9.27682
0.0498;9.28190;0.04857;9.28190
0.0500;9.28803;0.04786;9.28803
0.0502;9.29436;0.04742;9.29436
0.0504;9.30073;0.04643;9.30073
0.0506;9.30748;0.04550;9.30748
0.0508;9.31474;0.04484;9.31474
0.0509;9.31987;0.04435;9.31987
0.0512;9.32561;0.04345;9.32561
0.0514;9.33089;0.04296;9.33089
0.0517;9.33696;0.04216;9.33696
0.0520;9.34336;0.04135;9.34336
0.0522;9.34990;0.04088;9.34990
0.0524;9.35581;0.04043;9.35581
0.0526;9.36295;0.04002;9.36295
0.0528;9.36836;0.03946;9.36836
0.0529;9.37383;0.03918;9.37383
0.0532;9.37905;0.03858;9.37905
0.0534;9.38508;0.03819;9.38508
0.0536;9.39012;0.03811;9.39012
0.0537;9.39713;0.03783;9.39713
0.0538;9.40353;0.03742;9.40353
0.0540;9.40951;0.03710;9.40951
0.0541;9.41491;0.03663;9.41491
0.0543;9.42074;0.03641;9.42074
0.0545;9.42688;0.03612;9.42688
0.0547;9.43209;0.03568;9.43209
0.0549;9.43726;0.03544;9.43726
0.0552;9.44282;0.03461;9.44282
0.0554;9.44861;0.03420;9.44861
0.0556;9.45652;0.03395;9.45652
0.0558;9.46245;0.03346;9.46245
0.0560;9.46931;0.03327;9.46931
0.0561;9.47528;0.03299;9.47528
0.0563;9.48177;0.03265;9.48177
0.0566;9.48780;0.03206;9.48780
0.0569;9.49366;0.03180;9.49366
0.0572;9.49998;0.03143;9.49998
0.0574;9.50577;0.03116;9.50577
0.0576;9.51094;0.03105;9.51094
0.0577;9.51615;0.03081;9.51615
0.0580;9.52226;0.03055;9.52226
0.0582;9.52802;0.03051;9.52802
0.0584;9.53333;0.03013;9.53333
0.0587;9.53990;0.03010;9.53990
0.0589;9.54529;0.03010;9.54529
0.0591;9.55050;0.03004;9.55050
0.0593;9.55617;0.02991;9.55617
0.0595;9.56117;0.02974;9.56117
0.0597;9.56706;0.02979;9.56706
0.0598;9.57445;0.02960;9.57445
0.0600;9.58114;0.02961;9.58114
0.0601;9.58694;0.02966;9.58694
0.0602;9.59363;0.02966;9.59363
0.0604;9.59868;0.02953;9.59868
0.0607;9.60501;0.02928;9.60501
0.0608;9.61093;0.02914;9.61093
0.0610;9.61625;0.02950;9.61625
0.0614;9.62128;0.02937;9.62128
0.0615;9.62650;0.02918;9.62650
0.0619;9.63276;0.02931;9.63276
0.0621;9.63793;0.02928;9.63793
0.0622;9.64319;0.02927;9.64319
0.0624;9.64991;0.02912;9.64991
0.0625;9.65661;0.02911;9.65661
0.0626;9.66198;0.02925;9.66198
0.0628;9.66721;0.02923;9.66721
0.0629;9.67339;0.02928;9.67339
0.0632;9.67853;0.02936;9.67853
0.0633;9.68383;0.02933;9.68383
0.0634;9.69018;0.02926;9.69018
0.0636;9.69566;0.02927;9.69566
0.0639;9.70249;0.02939;9.70249
0.0640;9.70861;0.02947;9.70861
0.0642;9.71543;0.02940;9.71543
0.0643;9.72193;0.02936;9.72193
0.0644;9.72794;0.02925;9.72794
0.0645;9.73703;0.02930;9.73703
0.0647;9.74344;0.02934;9.74344
0.0648;9.74954;0.02936;9.74954
0.0649;9.75479;0.02935;9.75479
0.0651;9.76122;0.02940;9.76122
0.0654;9.76880;0.02949;9.76880
0.0655;9.77434;0.02955;9.77434
0.0657;9.78040;0.02952;9.78040
0.0659;9.78656;0.02964;9.78656
0.0660;9.79237;0.02958;9.79237
0.0662;9.79806;0.02968;9.79806
0.0665;9.80565;0.02951;9.80565
0.0666;9.81153;0.02980;9.81153
0.0668;9.81813;0.02973;9.81813
0.0669;9.82539;0.02978;9.82539
0.0670;9.83149;0.02972;9.83149
0.0673;9.83650;0.02989;9.83650
0.0676;9.84240;0.02996;9.84240
0.0678;9.84786;0.02992;9.84786
0.0679;9.85313;0.03010;9.85313
0.0681;9.85817;0.02998;9.85817
0.0682;9.86377;0.02986;9.86377
0.0686;9.86901;0.02973;9.86901
0.0688;9.87750;0.02965;9.87750
0.0690;9.88430;0.02970;9.88430
0.0691;9.89023;0.02967;9.89023
0.0694;9.89589;0.02968;9.89589
0.0695;9.90103;0.02971;9.90103
0.0696;9.90835;0.02947;9.90835
0.0700;9.91358;0.02940;9.91358
0.0704;9.91912;0.02935;9.91912
0.0707;9.92426;0.02937;9.92426
0.0708;9.92985;0.02920;9.92985
0.0709;9.93593;0.02924;9.93593
0.0710;9.94237;0.02912;9.94237
0.0713;9.94744;0.02907;9.94744
0.0715;9.95475;0.02896;9.95475
0.0716;9.96080;0.02889;9.96080
0.0718;9.96633;0.02888;9.96633
0.0721;9.97252;0.02876;9.97252
0.0722;9.97872;0.02857;9.97872
0.0724;9.98440;0.02868;9.98440
0.0726;9.99118;0.02837;9.99118
0.0729;9.99686;0.02840;9.99686
0.0733;10.00218;0.02829;10.00218
0.0735;10.00845;0.02822;10.00845
0.0736;10.01418;0.02810;10.01418
0.0737;10.01924;0.02803;10.01924
0.0739;10.02552;0.02792;10.02552
0.0741;10.03158;0.02776;10.03158
0.0743;10.03698;0.02783;10.03698
0.0744;10.04501;0.02780;10.04501
0.0745;10.05061;0.02779;10.05061
0.0747;10.05638;0.02761;10.05638
0.0748;10.06216;0.02761;10.06216
0.0751;10.06844;0.02740;10.06844
0.0751;10.07378;0.02745;10.07378
0.0752;10.07884;0.02746;10.07884
0.0754;10.08431;0.02743;10.08431
0.0755;10.08933;0.02737;10.08933
0.0756;10.09507;0.02731;10.09507
0.0757;10.10017;0.02715;10.10017
0.0759;10.10704;0.02711;10.10704
0.0760;10.11301;0.02702;10.11301
0.0762;10.11839;0.02714;10.11839
0.0765;10.12345;0.02696;10.12345
0.0769;10.12861;0.02674;10.12861
0.0773;10.13648;0.02639;10.13648
0.0775;10.14149;0.02619;10.14149
0.0776;10.14807;0.02635;10.14807
0.0777;10.15416;0.02614;10.15416
0.0778;10.15922;0.02607;10.15922
0.0779;10.16442;0.02605;10.16442
0.0781;10.16949;0.02595;10.16949
0.0782;10.17622;0.02589;10.17622
0.0788;10.18142;0.02615;10.18142
0.0790;10.18701;0.02604;10.18701
0.0793;10.19509;0.02611;10.19509
0.0794;10.20044;0.02597;10.20044
0.0797;10.20695;0.02600;10.20695
0.0800;10.21387;0.02593;10.21387
0.0802;10.22057;0.02594;10.22057
0.0803;10.22669;0.02579;10.22669
0.0806;10.23289;0.02579;10.23289
0.0808;10.23834;0.02563;10.23834
0.0810;10.24497;0.02562;10.24497
0.0813;10.25049;0.02543;10.25049
0.0814;10.25672;0.02555;10.25672
0.0815;10.26213;0.02540;10.26213
0.0816;10.26748;0.02534;10.26748
0.0818;10.27252;0.02540;10.27252
0.0820;10.27850;0.02511;10.27850
0.0823;10.28512;0.02487;10.28512
0.0826;10.29059;0.02483;10.29059
0.0828;10.29673;0.02462;10.29673
0.0830;10.30222;0.02467;10.30222
0.0835;10.30776;0.02469;10.30776
0.0837;10.31325;0.02448;10.31325
0.0839;10.31874;0.02469;10.31874
0.0840;10.32404;0.02489;10.32404
0.0843;10.32957;0.02482;10.32957
0.0845;10.33478;0.02493;10.33478
0.0847;10.34044;0.02494;10.34044
0.0848;10.34570;0.02514;10.34570
0.0850;10.35137;0.02519;10.35137
0.0851;10.35815;0.02519;10.35815
0.0853;10.36369;0.02542;10.36369
0.0856;10.36915;0.02554;10.36915
0.0858;10.37443;0.02576;10.37443
0.0862;10.38036;0.02585;10.38036
0.0863;10.38716;0.02599;10.38716
0.0865;10.39342;0.02591;10.39342
0.0867;10.39842;0.02586;10.39842
0.0869;10.40383;0.02584;10.40383
0.0871;10.40898;0.02601;10.40898
0.0872;10.41591;0.02607;10.41591
0.0874;10.42200;0.02607;10.42200
0.0875;10.42808;0.02604;10.42808
0.0877;10.43523;0.02615;10.43523
0.0878;10.44152;0.02607;10.44152
0.0879;10.44662;0.02615;10.44662
0.0880;10.45296;0.02641;10.45296
0.0881;10.45816;0.02629;10.45816
0.0882;10.46404;0.02630;10.46404
0.0884;10.46976;0.02619;10.46976
0.0886;10.47637;0.02620;10.47637
0.0890;10.48191;0.02589;10.48191
0.0892;10.48786;0.02596;10.48786
0.0895;10.49335;0.02582;10.49335
0.0897;10.49943;0.02583;10.49943
0.0899;10.50518;0.02575;10.50518
0.0901;10.51025;0.02580;10.51025
0.0904;10.51532;0.02568;10.51532
0.0906;10.52052;0.02556;10.52052
0.0909;10.52687;0.02540;10.52687
0.0911;10.53267;0.02537;10.53267
0.0912;10.53982;0.02527;10.53982
0.0914;10.54618;0.02536;10.54618
0.0917;10.55183;0.02526;10.55183
0.0920;10.55738;0.02505;10.55738
0.0922;10.56313;0.02489;10.56313
0.0923;10.56971;0.02486;10.56971
0.0924;10.57473;0.02481;10.57473
0.0926;10.58217;0.02480;10.58217
0.0927;10.58746;0.02460;10.58746
0.0928;10.59371;0.02451;10.59371
0.0929;10.60053;0.02442;10.60053
0.0932;10.60669;0.02443;10.60669
0.0934;10.61207;0.02408;10.61207
0.0936;10.61785;0.02391;10.61785
0.0938;10.62430;0.02381;10.62430
0.0941;10.63025;0.02368;10.63025
0.0944;10.63572;0.02357;10.63572
0.0946;10.64084;0.02343;10.64084
0.0948;10.64648;0.02305;10.64648
0.0949;10.65152;0.02324;10.65152
0.0953;10.65667;0.02297;10.65667
0.0956;10.66338;0.02289;10.66338
0.0957;10.67028;0.02282;10.67028
0.0958;10.67573;0.02269;10.67573
0.0959;10.68199;0.02251;10.68199
0.0960;10.68800;0.02244;10.68800
0.0964;10.69323;0.02232;10.69323
0.0965;10.69936;0.02245;10.69936
0.0967;10.70487;0.02226;10.70487
0.0970;10.71082;0.02223;10.71082
0.0972;10.71626;0.02218;10.71626
0.0974;10.72151;0.02234;10.72151
0.0975;10.72716;0.02211;10.72716
0.0977;10.73227;0.02245;10.73227
0.0979;10.73809;0.02235;10.73809
0.0982;10.74499;0.02251;10.74499
0.0984;10.75106;0.02250;10.75106
0.0988;10.75906;0.02254;10.75906
0.0989;10.76531;0.02264;10.76531
0.0990;10.77228;0.02253;10.77228
0.0992;10.77789;0.02261;10.77789
0.0995;10.78425;0.02289;10.78425
0.0996;10.78980;0.02273;10.78980
0.0998;10.79525;0.02281;10.79525
0.1001;10.80075;0.02286;10.80075
0.1006;10.80639;0.02278;10.80639
0.1007;10.81286;0.02286;10.81286
0.1009;10.81971;0.02287;10.81971
0.1012;10.82546;0.02297;10.82546
0.1016;10.83048;0.02312;10.83048
0.1018;10.83647;0.02305;10.83647
0.1020;10.84171;0.02314;10.84171
0.1023;10.84820;0.02338;10.84820
0.1025;10.85454;0.02343;10.85454
0.1027;10.85968;0.02343;10.85968
0.1029;10.86623;0.02343;10.86623
0.1031;10.87222;0.02377;10.87222
0.1033;10.87839;0.02377;10.87839
0.1034;10.88379;0.02375;10.88379
0.1037;10.88923;0.02378;10.88923
0.1039;10.89455;0.02393;10.89455
0.1044;10.89981;0.02400;10.89981
0.1048;10.90498;0.02417;10.90498
0.1050;10.91156;0.02419;10.91156
0.1052;10.91684;0.02458;10.91684
0.1054;10.92194;0.02457;10.92194
0.1056;10.92737;0.02461;10.92737
0.1058;10.93288;0.02473;10.93288
0.1062;10.93873;0.02482;10.93873
0.1064;10.94572;0.02499;10.94572
0.1068;10.95195;0.02514;10.95195
0.1069;10.95762;0.02525;10.95762
0.1072;10.96352;0.02546;10.96352
0.1075;10.97014;0.02563;10.97014
0.1077;10.97638;0.02576;10.97638
0.1079;10.98173;0.02571;10.98173
0.1081;10.98748;0.02574;10.98748
0.1082;10.99264;0.02581;10.99264
0.1084;10.99775;0.02599;10.99775
0.1086;11.00504;0.02599;11.00504
0.1088;11.01017;0.02591;11.01017
0.1091;11.01538;0.02604;11.01538
0.1093;11.02056;0.02627;11.02056
0.1096;11.02666;0.02617;11.02666
0.1099;11.03246;0.02622;11.03246
0.1103;11.03791;0.02615;11.03791
0.1107;11.04500;0.02615;11.04500
0.1109;11.05143;0.02619;11.05143
0.1113;11.05701;0.02596;11.05701
0.1115;11.06205;0.02607;11.06205
0.1118;11.06887;0.02578;11.06887
0.1123;11.07549;0.02572;11.07549
0.1125;11.08151;0.02568;11.08151
0.1127;11.08773;0.02566;11.08773
0.1129;11.09295;0.02567;11.09295
0.1132;11.09825;0.02561;11.09825
0.1134;11.10511;0.02547;11.10511
0.1136;11.11116;0.02540;11.11116
0.1137;11.11626;0.02542;11.11626
0.1139;11.12220;0.02548;11.12220
0.1141;11.12828;0.02528;11.12828
0.1144;11.13469;0.02517;11.13469
0.1146;11.14045;0.02522;11.14045
0.1149;11.14620;0.02506;11.14620
0.1150;11.14081;0.02491;11.14081
0.1151;11.14714;0.02491;11.14714
0.1153;11.15319;0.02474;11.15319
0.1158;11.15838;0.02451;11.15838
0.1163;11.16466;0.02425;11.16466
0.1169;11.16996;0.02391;11.16996
0.1172;11.17541;0.02373;11.17541
0.1173;11.18053;0.02354;11.18053
0.1175;11.18579;0.02360;11.18579
0.1177;11.19140;0.02346;11.19140
0.1179;11.19804;0.02341;11.19804
0.1181;11.20324;0.02330;11.20324
0.1182;11.20842;0.02321;11.20842
0.1186;11.21433;0.02307;11.21433
0.1188;11.22044;0.02309;11.22044
0.1191;11.22557;0.02312;11.22557
0.1194;11.23140;0.02295;11.23140
0.1197;11.23835;0.02280;11.23835
0.1201;11.24440;0.02280;11.24440
0.1203;11.25135;0.02263;11.25135
0.1206;11.25659;0.02255;11.25659
0.1207;11.26176;0.02257;11.26176
0.1210;11.26713;0.02257;11.26713
0.1212;11.27394;0.02254;11.27394
0.1214;11.28002;0.02235;11.28002
0.1217;11.28790;0.02215;11.28790
0.1220;11.29410;0.02216;11.29410
0.1224;11.29984;0.02206;11.29984
0.1231;11.30495;0.02216;11.30495
0.1235;11.31000;0.02221;11.31000
0.1236;11.31639;0.02241;11.31639
0.1239;11.32284;0.02228;11.32284
0.1243;11.32819;0.02236;11.32819
0.1247;11.33418;0.02274;11.33418
0.1248;11.33987;0.02262;11.33987
0.1249;11.34618;0.02273;11.34618
0.1252;11.35156;0.02291;11.35156
0.1256;11.35746;0.02306;11.35746
0.1260;11.36346;0.02328;11.36346
0.1262;11.36859;0.02325;11.36859
0.1264;11.37374;0.02344;11.37374
0.1267;11.38075;0.02335;11.38075
0.1269;11.38710;0.02351;11.38710
0.1271;11.39250;0.02359;11.39250
0.1272;11.39783;0.02357;11.39783
0.1275;11.40289;0.02372;11.40289
0.1277;11.40798;0.02378;11.40798
0.1282;11.41305;0.02383;11.41305
0.1285;11.41894;0.02417;11.41894
0.1288;11.42445;0.02400;11.42445
0.1289;11.42968;0.02402;11.42968
0.1290;11.43792;0.02413;11.43792
0.1291;11.44450;0.02416;11.44450
0.1292;11.45086;0.02400;11.45086
0.1294;11.45704;0.02400;11.45704
0.1295;11.46369;0.02401;11.46369
0.1296;11.46897;0.02399;11.46897
0.1299;11.47401;0.02397;11.47401
0.1304;11.47974;0.02375;11.47974
0.1309;11.48495;0.02333;11.48495
0.1314;11.49052;0.02286;11.49052
0.1317;11.49570;0.02277;11.49570
0.1320;11.50110;0.02263;11.50110
0.1327;11.50651;0.02236;11.50651
0.1329;11.51261;0.02215;11.51261
0.1330;11.51886;0.02205;11.51886
0.1331;11.52436;0.02194;11.52436
0.1333;11.53127;0.02170;11.53127
0.1336;11.53754;0.02170;11.53754
0.1340;11.54280;0.02155;11.54280
0.1342;11.54867;0.02144;11.54867
0.1345;11.55402;0.02134;11.55402
0.1347;11.56006;0.02125;11.56006
0.1349;11.56662;0.02120;11.56662
0.1351;11.57260;0.02123;11.57260
0.1353;11.57849;0.02107;11.57849
0.1357;11.58405;0.02080;11.58405
0.1361;11.58832;0.02079;11.58832
0.1362;11.58977;0.02091;11.58977
0.1365;11.59532;0.02084;11.59532
0.1368;11.60047;0.02090;11.60047
0.1371;11.60703;0.02081;11.60703
0.1372;11.61225;0.02096;11.61225
0.1377;11.61904;0.02115;11.61904
0.1380;11.62417;0.02121;11.62417
0.1382;11.63063;0.02126;11.63063
0.1385;11.63712;0.02135;11.63712
0.1389;11.64333;0.02142;11.64333
0.1392;11.64962;0.02124;11.64962
0.1397;11.65529;0.02146;11.65529
0.1399;11.66075;0.02134;11.66075
0.1403;11.66612;0.02153;11.66612
0.1408;11.67163;0.02173;11.67163
0.1414;11.67729;0.02188;11.67729
0.1416;11.68333;0.02194;11.68333
0.1418;11.69101;0.02206;11.69101
0.1419;11.69651;0.02209;11.69651
0.1421;11.70188;0.02204;11.70188
0.1423;11.70709;0.02217;11.70709
0.1426;11.71235;0.02235;11.71235
0.1428;11.71893;0.02243;11.71893
0.1430;11.72478;0.02245;11.72478
0.1433;11.73044;0.02280;11.73044
0.1436;11.73591;0.02279;11.73591
0.1439;11.74144;0.02285;11.74144
0.1442;11.74755;0.02301;11.74755
0.1446;11.75313;0.02297;11.75313
0.1449;11.75864;0.02313;11.75864
0.1452;11.76411;0.02334;11.76411
0.1456;11.76973;0.02338;11.76973
0.1460;11.77515;0.02350;11.77515
0.1462;11.78194;0.02340;11.78194
0.1463;11.78886;0.02362;11.78886
0.1466;11.79417;0.02378;11.79417
0.1470;11.79934;0.02376;11.79934
0.1474;11.80517;0.02395;11.80517
0.1477;11.81172;0.02392;11.81172
0.1481;11.81687;0.02402;11.81687
0.1484;11.82211;0.02393;11.82211
0.1488;11.82881;0.02411;11.82881
0.1492;11.83413;0.02433;11.83413
0.1495;11.84105;0.02441;11.84105
0.1497;11.84667;0.02437;11.84667
0.1500;11.85177;0.02446;11.85177
0.1503;11.85734;0.02460;11.85734
0.1510;11.86268;0.02472;11.86268
0.1515;11.86773;0.02486;11.86773
0.1518;11.87284;0.02473;11.87284
0.1522;11.87835;0.02490;11.87835
0.1525;11.88396;0.02497;11.88396
0.1527;11.88912;0.02489;11.88912
0.1529;11.89483;0.02489;11.89483
0.1531;11.90157;0.02490;11.90157
0.1534;11.90727;0.02500;11.90727
0.1537;11.91265;0.02485;11.91265
0.1538;11.91906;0.02477;11.91906
0.1541;11.92427;0.02480;11.92427
0.1544;11.93024;0.02485;11.93024
0.1548;11.93665;0.02474;11.93665
0.1550;11.92821;0.02461;11.92821
0.1551;11.93558;0.02472;11.93558
0.1555;11.94097;0.02440;11.94097
0.1557;11.94612;0.02444;11.94612
0.1562;11.95154;0.02414;11.95154
0.1565;11.95656;0.02405;11.95656
0.1568;11.96169;0.02384;11.96169
0.1573;11.96749;0.02353;11.96749
0.1575;11.97249;0.02368;11.97249
0.1578;11.97775;0.02341;11.97775
0.1581;11.98297;0.02335;11.98297
0.1583;11.98940;0.02317;11.98940
0.1590;11.99508;0.02276;11.99508
0.1595;12.00033;0.02286;12.00033
