Part protocol
Network name;Part_Maxymos_2_MP-001_2017-03-14_14-32-48_RMS_bl_trans150obr_tepy_035_OK.csv
Protocol version;3.01.00






Result information
Date;2017/03/14
Time;14:32:48
Cycle number;35
Total result;OK
Triggered switch signals
Part serial number;RMS_bl_trans150obr_tepy_035
Measuring program name;Bl_trans
Measuring program number;1
Zero X offset;0.000;mm
Tara Y offset;0.0000;RMS









Process values - curve related
Block X;12.000;mm;XMIN-X;7.666;mm
Block Y;0.0239;RMS;XMIN-Y;0.0234;RMS
Ref X;-;mm;XMAX-X;12.000;mm
Peak-peak X;4.334;mm;XMAX-Y;0.0239;RMS
Peak-peak Y;0.4229;RMS;YMIN-X;11.589;mm
;;;YMIN-Y;0.0214;RMS
;;;YMAX-X;8.477;mm
;;;YMAX-Y;0.4443;RMS

Process values - EO related;Result;Entry;Exit;XMIN-X;XMIN-Y;XMAX-X;XMAX-Y;YMIN-Y;YMIN-X;YMAX-Y;YMAX-X;Calculated result;NOK cause;Violation X;Violation Y;Ref X;Ref Y;Switch force;Y-Diff;X-Diff;Force deviation ratio;Click ratio;Contact edge
;;;;mm;RMS;mm;RMS;RMS;mm;RMS;mm;-;-;-;-;-;-;-;-;-;-;-;-;
EO-01;OK;8.225;;;;;;;;;;;;;;;;
EO-02;OK;;;;;;;;;;;0.2522;;;;;;
EO-03;OK;;;;;;;;;;;0.4229;;;;;;
EO-04;None;
EO-05;None;
EO-06;None;
EO-07;None;
EO-08;None;
EO-09;None;
EO-10;None;


















Evaluation objects settings;Reaction;X reference;Y-Reference;XMin;XMax;YMin;YMax;Entry;Exit;Curve part;Catch zone X;Catch zone Y;EO Name;EO description;Re-entry ignored;Generate statistics;X-Hysteresis;Y-Hysteresis;Down sampling rate;Calc limit min;Calc limit max;Grad limit min;Grad limit max;Hyst limit min;Hyst limit max;Speed limit min;Speed limit max;Time limit min;Time limit max;Is curve inside box;GetRef type;CalcInput1 | dx;CalcInput2 | dx;Calc operation;Average limit min;Average limit max;Break max bending;Visualization offset X;Visualization offset Y;-;-;-
EO-01;LINE-X;ABSOLUTE;ABSOLUTE;8.037;8.473;0.1000;;BELOW;NONE;ANY;+50%;+0%;;;FALSE;TRUE;0.0;0.0;1;;;;;;;;;;;;;;;;;;;0.000;0.0000;;;
EO-02;CALC;ABSOLUTE;ABSOLUTE;-0.409;;1.5166;;NONE;NONE;ANY;+0%;+0%;;;FALSE;TRUE;0.0;0.0;1;0.000000;0.500000;;;;;;;;;;;PV_TABLE_CURVE | YMAX-X;EO-01 | ENTRY;Subtraction;;;;0.000;0.0000;;;
EO-03;CALC;ABSOLUTE;ABSOLUTE;10.518;;1.3638;;NONE;NONE;ANY;+0%;+0%;;;FALSE;TRUE;0.0;0.0;1;0.000000;1.000000;;;;;;;;;;;PV_TABLE_CURVE | YMAX-Y;PV_TABLE_CURVE | YMIN-Y;Subtraction;;;;0.000;0.0000;;;
EO-04;OFF
EO-05;OFF
EO-06;OFF
EO-07;OFF
EO-08;OFF
EO-09;OFF
EO-10;OFF



















Switch signal settings;Channel;Threshold at;;Trigger from;Reference;Latch until
Type S1;X;10.370;mm;LEFT;ABSOLUTE;None
Type S2;OFF

















Device information
Device type;maXYmos TL
Device type number;5877A0
Device serial number;4915792
Firmware version;1.1.12 (r21150-TL_v1.1.x)
-
-
-
-
-
IP Address;192.168.21.20
Network name;Maxymos 2
Profibus address;10
-
-
-
Station name;Maxymos 2
Company name;
Comment;











Channel-X settings
Use the settings from global setup;True
Sensor-X type;Potentiometer
Unit;mm
Used range from;8.000;mm
Used range to;12.000;mm
Decimal places;XXX.XXX
Scaling by;Teach-In
Point 1;-0.380;mm;16.488;%
Point 2;72.105;mm;72.105;%
Invert signal;FALSE
Filter;OFF
Test point;0.000;mm
Tolerance;0.010;mm
Enable sensor test by dig-input;FALSE
Zoom from;0.000;mm
Zoom to;100.000;mm
Master Measurement Enable;FALSE
Master Measurement Nominal Position;0.000;mm
Encoder interpolation factor;-
Encoder electrical interface;-
Encoder referencing type;-
Encoder referencing edge;-
Encoder pulses per minute;-
Encoder use every nth-mark;-
Reference;-
Encoder reference points;-
Encoder coding;-
Encoder width;-
Encoder optimization;-
Encoder clock frequency;-
Termination resistor;-








Channel-Y settings
Use the settings from global setup;True
Sensor-Y type;Â±10V
Unit;RMS
Used range from;0.0000;RMS
Used range to;10.0000;RMS
Decimal places;XX.XXXX
Scaling by;Calibration Sheet
Sensitivity;1000.0000;RMS;-4.000;mV/V
Zero point;0.0000;RMS;0.000;mV/V
Invert signal;FALSE
Filter;OFF
Piezo reset;-
Test point;0.0000;RMS
Tolerance;0.0000;RMS
Enable sensor test by dig-input;FALSE
Zoom from;0.0000;RMS
Zoom to;1000.0000;RMS












Cycle control settings
Use the settings from global setup;True
Measuring function;Y (X)
Delta-X;User-Defined;0.00500;mm
START condition;Threshold-X;7.500;mm;Trigger from;LEFT
STOP condition;Threshold-X;12.000;mm;Trigger from;LEFT
Cycle time out;2.00;s
Turning point RIGHT;YMAX
Turning point LEFT;NONE
Cut curve at;NONE










Evaluation settings
Capture only first NOK-EO for statistics;False
Hysteresis X;0.0;%
Hysteresis Y;0.0;%






Trigger Y settings
Threshold at;1.2839;RMS
Value X at TRIGGER Y;0.000;mm
Approach from;BELOW






Block settings
Value X at block;XMAX
Block at;0.000;mm







Measuring curve
Number of measuring points;721
Ref. Graph on;ABSOLUTE
Curve segments;0;0;129;129;


Time;X(ABSOLUTE);Y;X (ABSOLUTE)


s;mm;RMS;mm
0.0000;7.66620;0.02336;7.66620
0.0003;7.67628;0.02340;7.67628
0.0005;7.68250;0.02309;7.68250
0.0007;7.68963;0.02304;7.68963
0.0008;7.69665;0.02318;7.69665
0.0010;7.70224;0.02310;7.70224
0.0011;7.70876;0.02284;7.70876
0.0012;7.71528;0.02310;7.71528
0.0014;7.72112;0.02296;7.72112
0.0015;7.72661;0.02294;7.72661
0.0018;7.73226;0.02318;7.73226
0.0020;7.73854;0.02333;7.73854
0.0023;7.74490;0.02382;7.74490
0.0024;7.74991;0.02383;7.74991
0.0024;7.75579;0.02406;7.75579
0.0026;7.76123;0.02424;7.76123
0.0029;7.76681;0.02444;7.76681
0.0032;7.77196;0.02510;7.77196
0.0035;7.77922;0.02528;7.77922
0.0037;7.78469;0.02563;7.78469
0.0041;7.79066;0.02615;7.79066
0.0043;7.79663;0.02644;7.79663
0.0046;7.80290;0.02731;7.80290
0.0048;7.80963;0.02813;7.80963
0.0052;7.81536;0.03068;7.81536
0.0060;7.82065;0.03478;7.82065
0.0067;7.82651;0.03667;7.82651
0.0072;7.83204;0.03704;7.83204
0.0078;7.83830;0.03713;7.83830
0.0083;7.84344;0.03682;7.84344
0.0087;7.85021;0.03657;7.85021
0.0089;7.85615;0.03612;7.85615
0.0093;7.86126;0.03561;7.86126
0.0095;7.86634;0.03529;7.86634
0.0097;7.87229;0.03488;7.87229
0.0099;7.87828;0.03458;7.87828
0.0104;7.88459;0.03383;7.88459
0.0107;7.88989;0.03333;7.88989
0.0110;7.89540;0.03274;7.89540
0.0115;7.90071;0.03218;7.90071
0.0119;7.90640;0.03162;7.90640
0.0121;7.91353;0.03105;7.91353
0.0123;7.91923;0.03089;7.91923
0.0124;7.92570;0.03084;7.92570
0.0125;7.93238;0.03054;7.93238
0.0127;7.93827;0.03028;7.93827
0.0128;7.94431;0.03029;7.94431
0.0130;7.94986;0.03000;7.94986
0.0132;7.95673;0.02965;7.95673
0.0135;7.96259;0.02937;7.96259
0.0138;7.96824;0.02893;7.96824
0.0141;7.97397;0.02866;7.97397
0.0143;7.97996;0.02839;7.97996
0.0144;7.98519;0.02827;7.98519
0.0147;7.99164;0.02803;7.99164
0.0148;7.99691;0.02803;7.99691
0.0151;8.00265;0.02768;8.00265
0.0152;8.00813;0.02770;8.00813
0.0154;8.01374;0.02736;8.01374
0.0155;8.01879;0.02726;8.01879
0.0157;8.02414;0.02706;8.02414
0.0158;8.02965;0.02691;8.02965
0.0161;8.03546;0.02681;8.03546
0.0163;8.04128;0.02660;8.04128
0.0165;8.04650;0.02649;8.04650
0.0167;8.05252;0.02641;8.05252
0.0168;8.05766;0.02654;8.05766
0.0170;8.06315;0.02649;8.06315
0.0172;8.06836;0.02633;8.06836
0.0173;8.07546;0.02636;8.07546
0.0175;8.08079;0.02638;8.08079
0.0177;8.08753;0.02624;8.08753
0.0179;8.09317;0.02633;8.09317
0.0180;8.09934;0.02624;8.09934
0.0183;8.10528;0.02644;8.10528
0.0184;8.11149;0.02625;8.11149
0.0186;8.11761;0.02629;8.11761
0.0190;8.12272;0.02642;8.12272
0.0193;8.12971;0.02639;8.12971
0.0195;8.13671;0.02639;8.13671
0.0196;8.14245;0.02646;8.14245
0.0197;8.15011;0.02653;8.15011
0.0198;8.15690;0.02657;8.15690
0.0200;8.16575;0.02650;8.16575
0.0201;8.17117;0.02683;8.17117
0.0202;8.17793;0.02666;8.17793
0.0204;8.18608;0.02674;8.18608
0.0204;8.19229;0.02683;8.19229
0.0206;8.19825;0.02694;8.19825
0.0209;8.20387;0.02712;8.20387
0.0210;8.20895;0.02782;8.20895
0.0212;8.21521;0.03445;8.21521
0.0213;8.21914;0.05522;8.21914
0.0215;8.22122;0.08236;8.22122
0.0216;8.22726;0.11049;8.22726
0.0217;8.23353;0.12890;8.23353
0.0218;8.24068;0.15526;8.24068
0.0219;8.24984;0.17247;8.24984
0.0221;8.25786;0.19725;8.25786
0.0221;8.26294;0.20515;8.26294
0.0222;8.27203;0.22054;8.27203
0.0223;8.27713;0.23542;8.27713
0.0225;8.28138;0.25692;8.28138
0.0226;8.28795;0.27105;8.28795
0.0227;8.29610;0.28504;8.29610
0.0228;8.30407;0.29850;8.30407
0.0228;8.30997;0.30509;8.30997
0.0229;8.31881;0.31773;8.31881
0.0230;8.32741;0.32968;8.32741
0.0231;8.33341;0.34088;8.33341
0.0232;8.34027;0.35619;8.34027
0.0235;8.34733;0.37869;8.34733
0.0236;8.35587;0.38648;8.35587
0.0236;8.36157;0.39026;8.36157
0.0237;8.37115;0.39703;8.37115
0.0238;8.38136;0.40345;8.38136
0.0239;8.38987;0.40919;8.38987
0.0240;8.39800;0.41437;8.39800
0.0241;8.40606;0.41911;8.40606
0.0244;8.41180;0.43209;8.41180
0.0245;8.41759;0.43474;8.41759
0.0246;8.42635;0.43719;8.42635
0.0247;8.43244;0.43813;8.43244
0.0248;8.44189;0.44007;8.44189
0.0249;8.45126;0.44151;8.45126
0.0249;8.45682;0.44206;8.45682
0.0250;8.46413;0.44299;8.46413
0.0251;8.46999;0.44394;8.46999
0.0252;8.47516;0.44414;8.47516
0.0253;8.47718;0.44429;8.47718
0.0254;8.48394;0.44429;8.48394
0.0256;8.49041;0.44352;8.49041
0.0257;8.49893;0.44278;8.49893
0.0258;8.50679;0.44184;8.50679
0.0259;8.51191;0.44071;8.51191
0.0260;8.51759;0.43865;8.51759
0.0261;8.52295;0.43703;8.52295
0.0262;8.52871;0.43538;8.52871
0.0263;8.53613;0.43357;8.53613
0.0264;8.54312;0.43061;8.54312
0.0265;8.54845;0.42847;8.54845
0.0267;8.55346;0.42484;8.55346
0.0268;8.55910;0.42119;8.55910
0.0269;8.56569;0.41847;8.56569
0.0271;8.57191;0.41334;8.57191
0.0273;8.57765;0.40901;8.57765
0.0274;8.58334;0.40609;8.58334
0.0276;8.59059;0.40004;8.59059
0.0277;8.59710;0.39538;8.59710
0.0278;8.60294;0.39072;8.60294
0.0281;8.60913;0.38103;8.60913
0.0284;8.61504;0.37275;8.61504
0.0286;8.62128;0.36431;8.62128
0.0291;8.62637;0.34740;8.62637
0.0294;8.63216;0.33546;8.63216
0.0297;8.63727;0.32711;8.63727
0.0302;8.64371;0.30888;8.64371
0.0306;8.64956;0.29566;8.64956
0.0312;8.65498;0.27525;8.65498
0.0317;8.66070;0.26025;8.66070
0.0322;8.66581;0.24591;8.66581
0.0325;8.67144;0.23652;8.67144
0.0332;8.67703;0.21714;8.67703
0.0338;8.68310;0.20275;8.68310
0.0341;8.68911;0.19594;8.68911
0.0342;8.69441;0.19278;8.69441
0.0345;8.69975;0.18619;8.69975
0.0346;8.70666;0.18501;8.70666
0.0347;8.71466;0.18310;8.71466
0.0348;8.72202;0.18104;8.72202
0.0348;8.72726;0.17885;8.72726
0.0350;8.73498;0.17589;8.73498
0.0351;8.74086;0.17402;8.74086
0.0352;8.74601;0.17197;8.74601
0.0353;8.75111;0.17008;8.75111
0.0354;8.75799;0.16819;8.75799
0.0356;8.76358;0.16337;8.76358
0.0358;8.76864;0.16086;8.76864
0.0359;8.77423;0.15836;8.77423
0.0360;8.78030;0.15561;8.78030
0.0363;8.78673;0.15154;8.78673
0.0364;8.79174;0.14901;8.79174
0.0366;8.79743;0.14657;8.79743
0.0367;8.80293;0.14497;8.80293
0.0368;8.80884;0.14341;8.80884
0.0369;8.81469;0.14117;8.81469
0.0371;8.82313;0.13887;8.82313
0.0372;8.82996;0.13722;8.82996
0.0372;8.83602;0.13577;8.83602
0.0373;8.84240;0.13444;8.84240
0.0375;8.84776;0.13166;8.84776
0.0378;8.85313;0.12821;8.85313
0.0380;8.85834;0.12496;8.85834
0.0381;8.86423;0.12341;8.86423
0.0382;8.86964;0.12247;8.86964
0.0384;8.87586;0.12061;8.87586
0.0384;8.88379;0.11944;8.88379
0.0386;8.89065;0.11761;8.89065
0.0387;8.89567;0.11637;8.89567
0.0388;8.90382;0.11471;8.90382
0.0390;8.90893;0.11271;8.90893
0.0391;8.91453;0.11158;8.91453
0.0393;8.92017;0.10909;8.92017
0.0395;8.92641;0.10724;8.92641
0.0397;8.93187;0.10461;8.93187
0.0398;8.93767;0.10315;8.93767
0.0399;8.94541;0.10216;8.94541
0.0400;8.95075;0.10123;8.95075
0.0401;8.95823;0.10011;8.95823
0.0402;8.96472;0.09911;8.96472
0.0403;8.97226;0.09814;8.97226
0.0405;8.97782;0.09690;8.97782
0.0408;8.98516;0.09411;8.98516
0.0409;8.99401;0.09277;8.99401
0.0412;8.99920;0.09007;8.99920
0.0414;9.00470;0.08839;9.00470
0.0415;9.01069;0.08756;9.01069
0.0418;9.01652;0.08498;9.01652
0.0419;9.02293;0.08404;9.02293
0.0420;9.02870;0.08310;9.02870
0.0422;9.03473;0.08098;9.03473
0.0424;9.04186;0.08003;9.04186
0.0425;9.04964;0.07894;9.04964
0.0427;9.05841;0.07760;9.05841
0.0430;9.06564;0.07576;9.06564
0.0431;9.07073;0.07476;9.07073
0.0432;9.07576;0.07394;9.07576
0.0435;9.08184;0.07247;9.08184
0.0438;9.08685;0.07073;9.08685
0.0441;9.09313;0.06865;9.09313
0.0444;9.09905;0.06723;9.09905
0.0446;9.10422;0.06626;9.10422
0.0449;9.10933;0.06458;9.10933
0.0451;9.11543;0.06352;9.11543
0.0453;9.12306;0.06273;9.12306
0.0456;9.12821;0.06170;9.12821
0.0457;9.13352;0.06085;9.13352
0.0458;9.13972;0.06038;9.13972
0.0460;9.14706;0.05951;9.14706
0.0462;9.15321;0.05872;9.15321
0.0464;9.16066;0.05819;9.16066
0.0466;9.16713;0.05738;9.16713
0.0467;9.17449;0.05706;9.17449
0.0468;9.18053;0.05669;9.18053
0.0469;9.18651;0.05580;9.18651
0.0472;9.19213;0.05510;9.19213
0.0474;9.19761;0.05438;9.19761
0.0476;9.20308;0.05356;9.20308
0.0479;9.20824;0.05292;9.20824
0.0480;9.21390;0.05227;9.21390
0.0482;9.21961;0.05153;9.21961
0.0484;9.22674;0.05101;9.22674
0.0485;9.23235;0.05048;9.23235
0.0486;9.23788;0.05012;9.23788
0.0487;9.24373;0.04964;9.24373
0.0489;9.24975;0.04887;9.24975
0.0492;9.25602;0.04783;9.25602
0.0494;9.26187;0.04725;9.26187
0.0495;9.26776;0.04684;9.26776
0.0496;9.27328;0.04631;9.27328
0.0499;9.27857;0.04569;9.27857
0.0501;9.28559;0.04479;9.28559
0.0503;9.29269;0.04413;9.29269
0.0504;9.29778;0.04373;9.29778
0.0506;9.30346;0.04339;9.30346
0.0508;9.30914;0.04261;9.30914
0.0510;9.31553;0.04211;9.31553
0.0513;9.32115;0.04125;9.32115
0.0515;9.32770;0.04071;9.32770
0.0516;9.33275;0.04016;9.33275
0.0519;9.33886;0.03959;9.33886
0.0521;9.34505;0.03904;9.34505
0.0523;9.35153;0.03856;9.35153
0.0525;9.35761;0.03786;9.35761
0.0527;9.36393;0.03747;9.36393
0.0528;9.36963;0.03715;9.36963
0.0531;9.37578;0.03642;9.37578
0.0534;9.38275;0.03585;9.38275
0.0535;9.38792;0.03558;9.38792
0.0536;9.39453;0.03541;9.39453
0.0537;9.40019;0.03526;9.40019
0.0538;9.40592;0.03507;9.40592
0.0540;9.41109;0.03455;9.41109
0.0542;9.41707;0.03432;9.41707
0.0544;9.42317;0.03397;9.42317
0.0546;9.42863;0.03373;9.42863
0.0547;9.43381;0.03361;9.43381
0.0551;9.43972;0.03306;9.43972
0.0553;9.44472;0.03292;9.44472
0.0555;9.45106;0.03241;9.45106
0.0556;9.45623;0.03252;9.45623
0.0557;9.46123;0.03227;9.46123
0.0559;9.46747;0.03200;9.46747
0.0561;9.47436;0.03191;9.47436
0.0562;9.47974;0.03172;9.47974
0.0564;9.48518;0.03144;9.48518
0.0567;9.49020;0.03121;9.49020
0.0569;9.49576;0.03099;9.49576
0.0572;9.50133;0.03082;9.50133
0.0575;9.50710;0.03086;9.50710
0.0576;9.51359;0.03078;9.51359
0.0578;9.51933;0.03051;9.51933
0.0583;9.52493;0.03033;9.52493
0.0584;9.53099;0.03017;9.53099
0.0586;9.53752;0.03012;9.53752
0.0588;9.54434;0.03013;9.54434
0.0591;9.54951;0.03014;9.54951
0.0593;9.55452;0.03020;9.55452
0.0595;9.55955;0.03006;9.55955
0.0597;9.56654;0.03009;9.56654
0.0598;9.57330;0.03001;9.57330
0.0600;9.57929;0.02996;9.57929
0.0601;9.58663;0.02990;9.58663
0.0602;9.59183;0.02978;9.59183
0.0604;9.59712;0.02972;9.59712
0.0607;9.60387;0.02970;9.60387
0.0608;9.61037;0.02953;9.61037
0.0612;9.61663;0.02964;9.61663
0.0614;9.62189;0.02963;9.62189
0.0616;9.62706;0.02954;9.62706
0.0620;9.63313;0.02953;9.63313
0.0622;9.63823;0.02955;9.63823
0.0624;9.64536;0.02956;9.64536
0.0625;9.65122;0.02951;9.65122
0.0627;9.65725;0.02944;9.65725
0.0628;9.66248;0.02940;9.66248
0.0630;9.66816;0.02956;9.66816
0.0631;9.67372;0.02951;9.67372
0.0633;9.67946;0.02937;9.67946
0.0635;9.68556;0.02962;9.68556
0.0636;9.69220;0.02963;9.69220
0.0638;9.69760;0.02966;9.69760
0.0640;9.70375;0.02969;9.70375
0.0642;9.71055;0.02975;9.71055
0.0644;9.71843;0.02988;9.71843
0.0645;9.72502;0.02977;9.72502
0.0646;9.73105;0.02998;9.73105
0.0647;9.73693;0.02990;9.73693
0.0647;9.74259;0.02995;9.74259
0.0649;9.74860;0.02999;9.74860
0.0650;9.75558;0.03007;9.75558
0.0652;9.76061;0.02995;9.76061
0.0654;9.76774;0.02992;9.76774
0.0655;9.77406;0.03001;9.77406
0.0658;9.77956;0.02995;9.77956
0.0660;9.78511;0.02979;9.78511
0.0662;9.79208;0.02963;9.79208
0.0663;9.79714;0.02952;9.79714
0.0665;9.80320;0.02960;9.80320
0.0667;9.80897;0.02963;9.80897
0.0669;9.81764;0.02954;9.81764
0.0670;9.82450;0.02942;9.82450
0.0671;9.83025;0.02948;9.83025
0.0673;9.83569;0.02948;9.83569
0.0677;9.84120;0.02948;9.84120
0.0679;9.84785;0.02930;9.84785
0.0681;9.85386;0.02949;9.85386
0.0683;9.85892;0.02954;9.85892
0.0684;9.86416;0.02952;9.86416
0.0686;9.86990;0.02946;9.86990
0.0690;9.87739;0.02956;9.87739
0.0691;9.88243;0.02936;9.88243
0.0692;9.88828;0.02943;9.88828
0.0694;9.89398;0.02954;9.89398
0.0696;9.90032;0.02939;9.90032
0.0697;9.90596;0.02935;9.90596
0.0699;9.91174;0.02939;9.91174
0.0704;9.91675;0.02918;9.91675
0.0707;9.92243;0.02911;9.92243
0.0708;9.92869;0.02918;9.92869
0.0710;9.93462;0.02903;9.93462
0.0712;9.94231;0.02898;9.94231
0.0714;9.94894;0.02906;9.94894
0.0716;9.95582;0.02884;9.95582
0.0718;9.96201;0.02898;9.96201
0.0720;9.96751;0.02893;9.96751
0.0722;9.97303;0.02855;9.97303
0.0723;9.97949;0.02865;9.97949
0.0725;9.98503;0.02854;9.98503
0.0728;9.99110;0.02841;9.99110
0.0731;9.99612;0.02823;9.99612
0.0734;10.00197;0.02795;10.00197
0.0736;10.00742;0.02813;10.00742
0.0738;10.01446;0.02786;10.01446
0.0740;10.02092;0.02793;10.02092
0.0741;10.02673;0.02784;10.02673
0.0743;10.03266;0.02802;10.03266
0.0746;10.04002;0.02780;10.04002
0.0747;10.04735;0.02787;10.04735
0.0748;10.05379;0.02772;10.05379
0.0749;10.06044;0.02767;10.06044
0.0750;10.06662;0.02776;10.06662
0.0752;10.07419;0.02769;10.07419
0.0754;10.07939;0.02754;10.07939
0.0755;10.08594;0.02744;10.08594
0.0757;10.09155;0.02749;10.09155
0.0758;10.09811;0.02738;10.09811
0.0760;10.10563;0.02728;10.10563
0.0762;10.11231;0.02704;10.11231
0.0764;10.11797;0.02697;10.11797
0.0767;10.12317;0.02711;10.12317
0.0769;10.12828;0.02683;10.12828
0.0773;10.13404;0.02656;10.13404
0.0775;10.14111;0.02640;10.14111
0.0777;10.15161;0.02632;10.15161
0.0779;10.15932;0.02629;10.15932
0.0780;10.16438;0.02597;10.16438
0.0782;10.17106;0.02606;10.17106
0.0784;10.17712;0.02577;10.17712
0.0791;10.18448;0.02515;10.18448
0.0792;10.19053;0.02522;10.19053
0.0795;10.19831;0.02511;10.19831
0.0797;10.20478;0.02507;10.20478
0.0800;10.21068;0.02482;10.21068
0.0802;10.21614;0.02477;10.21614
0.0804;10.22383;0.02481;10.22383
0.0806;10.23088;0.02494;10.23088
0.0808;10.23901;0.02481;10.23901
0.0811;10.24408;0.02490;10.24408
0.0813;10.25050;0.02484;10.25050
0.0815;10.25658;0.02468;10.25658
0.0816;10.26290;0.02482;10.26290
0.0818;10.26889;0.02475;10.26889
0.0821;10.27593;0.02457;10.27593
0.0824;10.28191;0.02458;10.28191
0.0826;10.28737;0.02453;10.28737
0.0827;10.29274;0.02461;10.29274
0.0832;10.29791;0.02465;10.29791
0.0834;10.30415;0.02483;10.30415
0.0837;10.31025;0.02487;10.31025
0.0839;10.31674;0.02511;10.31674
0.0841;10.32281;0.02530;10.32281
0.0843;10.32848;0.02542;10.32848
0.0847;10.33508;0.02570;10.33508
0.0849;10.34145;0.02580;10.34145
0.0851;10.34725;0.02596;10.34725
0.0852;10.35423;0.02602;10.35423
0.0854;10.35942;0.02603;10.35942
0.0857;10.36465;0.02629;10.36465
0.0860;10.37089;0.02651;10.37089
0.0862;10.37623;0.02638;10.37623
0.0864;10.38256;0.02665;10.38256
0.0866;10.38811;0.02658;10.38811
0.0868;10.39424;0.02657;10.39424
0.0870;10.40036;0.02673;10.40036
0.0872;10.40551;0.02682;10.40551
0.0873;10.41149;0.02687;10.41149
0.0875;10.41733;0.02670;10.41733
0.0877;10.42385;0.02676;10.42385
0.0878;10.42917;0.02681;10.42917
0.0880;10.43494;0.02659;10.43494
0.0882;10.44247;0.02673;10.44247
0.0883;10.44903;0.02682;10.44903
0.0884;10.45495;0.02663;10.45495
0.0885;10.46013;0.02656;10.46013
0.0887;10.46592;0.02638;10.46592
0.0888;10.47199;0.02645;10.47199
0.0890;10.47733;0.02626;10.47733
0.0893;10.48274;0.02622;10.48274
0.0895;10.48845;0.02596;10.48845
0.0897;10.49376;0.02583;10.49376
0.0899;10.49905;0.02574;10.49905
0.0902;10.50431;0.02532;10.50431
0.0904;10.50947;0.02523;10.50947
0.0906;10.51559;0.02523;10.51559
0.0908;10.52105;0.02493;10.52105
0.0911;10.52643;0.02495;10.52643
0.0912;10.53214;0.02489;10.53214
0.0914;10.53810;0.02476;10.53810
0.0916;10.54380;0.02473;10.54380
0.0918;10.55038;0.02453;10.55038
0.0921;10.55637;0.02448;10.55637
0.0923;10.56291;0.02444;10.56291
0.0924;10.56814;0.02425;10.56814
0.0926;10.57399;0.02427;10.57399
0.0927;10.58079;0.02438;10.58079
0.0928;10.58641;0.02417;10.58641
0.0930;10.59336;0.02409;10.59336
0.0931;10.60055;0.02406;10.60055
0.0933;10.60609;0.02411;10.60609
0.0935;10.61139;0.02408;10.61139
0.0938;10.61869;0.02390;10.61869
0.0939;10.62447;0.02373;10.62447
0.0942;10.62988;0.02372;10.62988
0.0945;10.63572;0.02355;10.63572
0.0948;10.64093;0.02320;10.64093
0.0950;10.64598;0.02299;10.64598
0.0951;10.65189;0.02298;10.65189
0.0955;10.65791;0.02298;10.65791
0.0957;10.66331;0.02269;10.66331
0.0959;10.66915;0.02258;10.66915
0.0959;10.67425;0.02243;10.67425
0.0960;10.68031;0.02235;10.68031
0.0962;10.68718;0.02252;10.68718
0.0964;10.69291;0.02251;10.69291
0.0966;10.69865;0.02226;10.69865
0.0969;10.70523;0.02218;10.70523
0.0971;10.71187;0.02211;10.71187
0.0972;10.71694;0.02233;10.71694
0.0975;10.72363;0.02234;10.72363
0.0977;10.73018;0.02228;10.73018
0.0980;10.73767;0.02245;10.73767
0.0983;10.74337;0.02243;10.74337
0.0984;10.74860;0.02247;10.74860
0.0986;10.75390;0.02267;10.75390
0.0988;10.75903;0.02249;10.75903
0.0989;10.76599;0.02263;10.76599
0.0990;10.77180;0.02247;10.77180
0.0993;10.77782;0.02259;10.77782
0.0995;10.78370;0.02265;10.78370
0.0996;10.78927;0.02279;10.78927
0.0998;10.79430;0.02289;10.79430
0.1001;10.80074;0.02288;10.80074
0.1004;10.80589;0.02295;10.80589
0.1007;10.81154;0.02329;10.81154
0.1009;10.81855;0.02335;10.81855
0.1011;10.82398;0.02333;10.82398
0.1014;10.82899;0.02354;10.82899
0.1017;10.83524;0.02361;10.83524
0.1019;10.84145;0.02371;10.84145
0.1022;10.84731;0.02406;10.84731
0.1024;10.85301;0.02409;10.85301
0.1026;10.85880;0.02416;10.85880
0.1028;10.86428;0.02422;10.86428
0.1029;10.87011;0.02423;10.87011
0.1032;10.87683;0.02453;10.87683
0.1034;10.88372;0.02471;10.88372
0.1036;10.88954;0.02474;10.88954
0.1038;10.89475;0.02486;10.89475
0.1044;10.90151;0.02559;10.90151
0.1047;10.90699;0.02563;10.90699
0.1051;10.91374;0.02597;10.91374
0.1053;10.92142;0.02593;10.92142
0.1055;10.92665;0.02601;10.92665
0.1058;10.93233;0.02629;10.93233
0.1062;10.93830;0.02639;10.93830
0.1064;10.94338;0.02634;10.94338
0.1066;10.94842;0.02638;10.94842
0.1069;10.95376;0.02638;10.95376
0.1070;10.95986;0.02653;10.95986
0.1074;10.96511;0.02646;10.96511
0.1077;10.97082;0.02654;10.97082
0.1078;10.97607;0.02667;10.97607
0.1079;10.98202;0.02653;10.98202
0.1083;10.98990;0.02660;10.98990
0.1084;10.99596;0.02651;10.99596
0.1086;11.00146;0.02650;11.00146
0.1088;11.00748;0.02654;11.00748
0.1090;11.01259;0.02661;11.01259
0.1094;11.01834;0.02652;11.01834
0.1096;11.02338;0.02630;11.02338
0.1099;11.02864;0.02630;11.02864
0.1103;11.03377;0.02620;11.03377
0.1105;11.03980;0.02619;11.03980
0.1109;11.04491;0.02605;11.04491
0.1110;11.05005;0.02602;11.05005
0.1112;11.05772;0.02596;11.05772
0.1118;11.06423;0.02582;11.06423
0.1121;11.07054;0.02586;11.07054
0.1124;11.07653;0.02573;11.07653
0.1126;11.08183;0.02578;11.08183
0.1127;11.08727;0.02596;11.08727
0.1129;11.09266;0.02577;11.09266
0.1133;11.09800;0.02560;11.09800
0.1135;11.10363;0.02559;11.10363
0.1136;11.11177;0.02563;11.11177
0.1138;11.11871;0.02551;11.11871
0.1140;11.12402;0.02531;11.12402
0.1142;11.12941;0.02525;11.12941
0.1146;11.13595;0.02513;11.13595
0.1147;11.14134;0.02504;11.14134
0.1149;11.14714;0.02500;11.14714
0.1152;11.15337;0.02482;11.15337
0.1158;11.15913;0.02461;11.15913
0.1163;11.16493;0.02459;11.16493
0.1169;11.17060;0.02423;11.17060
0.1171;11.17750;0.02427;11.17750
0.1173;11.18388;0.02426;11.18388
0.1175;11.18888;0.02403;11.18888
0.1177;11.19649;0.02377;11.19649
0.1179;11.20207;0.02389;11.20207
0.1181;11.20712;0.02376;11.20712
0.1183;11.21264;0.02363;11.21264
0.1187;11.21819;0.02345;11.21819
0.1190;11.22437;0.02357;11.22437
0.1194;11.23184;0.02347;11.23184
0.1198;11.23763;0.02340;11.23763
0.1200;11.24452;0.02346;11.24452
0.1203;11.25102;0.02343;11.25102
0.1206;11.25872;0.02365;11.25872
0.1207;11.26376;0.02345;11.26376
0.1210;11.26958;0.02335;11.26958
0.1212;11.27732;0.02343;11.27732
0.1215;11.28325;0.02333;11.28325
0.1217;11.28996;0.02339;11.28996
0.1223;11.29568;0.02332;11.29568
0.1226;11.30083;0.02321;11.30083
0.1230;11.30645;0.02310;11.30645
0.1234;11.31279;0.02319;11.31279
0.1237;11.31798;0.02333;11.31798
0.1240;11.32468;0.02343;11.32468
0.1243;11.33076;0.02332;11.33076
0.1246;11.33670;0.02371;11.33670
0.1248;11.34330;0.02366;11.34330
0.1250;11.34854;0.02382;11.34854
0.1253;11.35429;0.02399;11.35429
0.1257;11.36044;0.02422;11.36044
0.1261;11.36637;0.02453;11.36637
0.1263;11.37225;0.02460;11.37225
0.1265;11.37833;0.02453;11.37833
0.1268;11.38469;0.02453;11.38469
0.1269;11.39047;0.02465;11.39047
0.1270;11.39549;0.02462;11.39549
0.1273;11.40076;0.02472;11.40076
0.1278;11.40654;0.02454;11.40654
0.1281;11.41187;0.02448;11.41187
0.1285;11.41757;0.02428;11.41757
0.1287;11.42394;0.02426;11.42394
0.1290;11.43168;0.02422;11.43168
0.1291;11.43809;0.02407;11.43809
0.1292;11.44493;0.02396;11.44493
0.1293;11.45043;0.02396;11.45043
0.1294;11.45577;0.02406;11.45577
0.1295;11.46206;0.02391;11.46206
0.1296;11.46840;0.02379;11.46840
0.1298;11.47343;0.02393;11.47343
0.1305;11.47914;0.02373;11.47914
0.1309;11.48501;0.02362;11.48501
0.1315;11.49035;0.02325;11.49035
0.1318;11.49543;0.02338;11.49543
0.1322;11.50053;0.02323;11.50053
0.1327;11.50559;0.02284;11.50559
0.1329;11.51067;0.02281;11.51067
0.1330;11.51621;0.02274;11.51621
0.1331;11.52167;0.02262;11.52167
0.1333;11.52866;0.02265;11.52866
0.1335;11.53409;0.02228;11.53409
0.1337;11.54007;0.02226;11.54007
0.1340;11.54591;0.02201;11.54591
0.1343;11.55128;0.02207;11.55128
0.1346;11.55739;0.02180;11.55739
0.1348;11.56359;0.02164;11.56359
0.1349;11.56879;0.02157;11.56879
0.1351;11.57542;0.02162;11.57542
0.1355;11.58113;0.02160;11.58113
0.1357;11.58630;0.02153;11.58630
0.1360;11.58880;0.02140;11.58880
0.1363;11.59173;0.02147;11.59173
0.1366;11.59729;0.02156;11.59729
0.1368;11.60276;0.02150;11.60276
0.1371;11.60926;0.02158;11.60926
0.1372;11.61438;0.02150;11.61438
0.1378;11.62013;0.02158;11.62013
0.1381;11.62632;0.02179;11.62632
0.1383;11.63153;0.02171;11.63153
0.1384;11.63682;0.02175;11.63682
0.1387;11.64264;0.02176;11.64264
0.1390;11.64850;0.02189;11.64850
0.1394;11.65380;0.02172;11.65380
0.1398;11.66051;0.02169;11.66051
0.1401;11.66562;0.02181;11.66562
0.1407;11.67228;0.02180;11.67228
0.1414;11.67748;0.02212;11.67748
0.1415;11.68449;0.02219;11.68449
0.1416;11.69016;0.02233;11.69016
0.1418;11.69564;0.02228;11.69564
0.1419;11.70108;0.02248;11.70108
0.1422;11.70685;0.02254;11.70685
0.1426;11.71355;0.02272;11.71355
0.1428;11.71985;0.02275;11.71985
0.1431;11.72655;0.02294;11.72655
0.1434;11.73231;0.02304;11.73231
0.1437;11.73756;0.02324;11.73756
0.1439;11.74412;0.02336;11.74412
0.1443;11.75035;0.02354;11.75035
0.1446;11.75552;0.02366;11.75552
0.1451;11.76058;0.02388;11.76058
0.1453;11.76562;0.02390;11.76562
0.1458;11.77097;0.02378;11.77097
0.1461;11.77785;0.02391;11.77785
0.1463;11.78472;0.02389;11.78472
0.1465;11.79011;0.02387;11.79011
0.1468;11.79526;0.02409;11.79526
0.1473;11.80045;0.02413;11.80045
0.1475;11.80565;0.02420;11.80565
0.1478;11.81117;0.02439;11.81117
0.1481;11.81672;0.02450;11.81672
0.1485;11.82197;0.02472;11.82197
0.1488;11.82750;0.02494;11.82750
0.1492;11.83324;0.02504;11.83324
0.1496;11.83977;0.02495;11.83977
0.1498;11.84576;0.02517;11.84576
0.1500;11.85214;0.02519;11.85214
0.1504;11.85759;0.02562;11.85759
0.1508;11.86261;0.02545;11.86261
0.1513;11.86785;0.02554;11.86785
0.1519;11.87290;0.02553;11.87290
0.1522;11.87940;0.02556;11.87940
0.1526;11.88502;0.02563;11.88502
0.1528;11.89147;0.02548;11.89147
0.1531;11.89780;0.02543;11.89780
0.1533;11.90407;0.02535;11.90407
0.1535;11.90963;0.02521;11.90963
0.1539;11.91634;0.02523;11.91634
0.1541;11.92144;0.02515;11.92144
0.1543;11.92673;0.02496;11.92673
0.1545;11.92139;0.02486;11.92139
0.1546;11.93028;0.02484;11.93028
0.1549;11.93541;0.02468;11.93541
0.1556;11.94119;0.02463;11.94119
0.1559;11.94680;0.02478;11.94680
0.1563;11.95227;0.02465;11.95227
0.1567;11.95765;0.02445;11.95765
0.1571;11.96265;0.02450;11.96265
0.1575;11.96799;0.02444;11.96799
0.1577;11.97447;0.02427;11.97447
0.1580;11.97972;0.02411;11.97972
0.1582;11.98630;0.02406;11.98630
0.1589;11.99320;0.02391;11.99320
0.1593;11.99875;0.02394;11.99875
0.1594;12.00023;0.02390;12.00023
