Part protocol
Network name;Part_Maxymos_1_MP-001_2017-03-14_14-23-40_Sila_bl_trans150obr_tepy_030_OK.csv
Protocol version;3.01.00






Result information
Date;2017/03/14
Time;14:23:40
Cycle number;30
Total result;OK
Triggered switch signals
Part serial number;Sila_bl_trans150obr_tepy_030
Measuring program name;BL_rans
Measuring program number;1
Zero X offset;0.000;mm
Tara Y offset;0;N









Process values - curve related
Block X;10.500;mm;XMIN-X;8.207;mm
Block Y;1100;N;XMIN-Y;-3;N
Ref X;9.169;mm;XMAX-X;10.500;mm
Peak-peak X;2.294;mm;XMAX-Y;1100;N
Peak-peak Y;8218;N;YMIN-X;8.207;mm
;;;YMIN-Y;-3;N
;;;YMAX-X;9.472;mm
;;;YMAX-Y;8215;N

Process values - EO related;Result;Entry;Exit;XMIN-X;XMIN-Y;XMAX-X;XMAX-Y;YMIN-Y;YMIN-X;YMAX-Y;YMAX-X;Calculated result;NOK cause;Violation X;Violation Y;Ref X;Ref Y;Switch force;Y-Diff;X-Diff;Force deviation ratio;Click ratio;Contact edge
;;;;mm;N;mm;N;N;mm;N;mm;-;-;-;-;-;-;-;-;-;-;-;-;
EO-01;OK;9.153;;;;;;;;;;;;;;;;
EO-02;OK;;;;;;;;;;;-0.3194;;;;;;
EO-03;OK;;;;;;;;;;;;;;;;;
EO-04;None;
EO-05;None;
EO-06;None;
EO-07;None;
EO-08;None;
EO-09;None;
EO-10;None;


















Evaluation objects settings;Reaction;X reference;Y-Reference;XMin;XMax;YMin;YMax;Entry;Exit;Curve part;Catch zone X;Catch zone Y;EO Name;EO description;Re-entry ignored;Generate statistics;X-Hysteresis;Y-Hysteresis;Down sampling rate;Calc limit min;Calc limit max;Grad limit min;Grad limit max;Hyst limit min;Hyst limit max;Speed limit min;Speed limit max;Time limit min;Time limit max;Is curve inside box;GetRef type;CalcInput1 | dx;CalcInput2 | dx;Calc operation;Average limit min;Average limit max;Break max bending;Visualization offset X;Visualization offset Y;-;-;-
EO-01;LINE-X;ABSOLUTE;ABSOLUTE;8.689;9.496;1000;;BELOW;NONE;ANY;+50%;+0%;;;FALSE;TRUE;0.0;0.0;1;;;;;;;;;;;;;;;;;;;0.000;0;;;
EO-02;CALC;ABSOLUTE;ABSOLUTE;7.603;;4166;;NONE;NONE;ANY;+0%;+0%;;;FALSE;TRUE;0.0;0.0;1;-0.360000;-0.280000;;;;;;;;;;;EO-01 | ENTRY;PV_TABLE_CURVE | YMAX-X;Subtraction;;;;0.000;0;;;
EO-03;NO-PASS;ABSOLUTE;ABSOLUTE;7.653;12.250;8743;;NONE;NONE;ANY;+0%;+0%;;;FALSE;TRUE;0.0;0.0;1;;;;;;;;;;;;;;;;;;;0.000;0;;;
EO-04;OFF
EO-05;OFF
EO-06;OFF
EO-07;OFF
EO-08;OFF
EO-09;OFF
EO-10;OFF



















Switch signal settings;Channel;Threshold at;;Trigger from;Reference;Latch until
Type S1;X;9.860;mm;LEFT;ABSOLUTE;None
Type S2;X;11.480;mm;LEFT;ABSOLUTE;None

















Device information
Device type;maXYmos TL
Device type number;5877A0
Device serial number;4915791
Firmware version;1.1.12 (r21150-TL_v1.1.x)
-
-
-
-
-
IP Address;192.168.21.10
Network name;Maxymos 1
Profibus address;10
-
-
-
Station name;Maxymos 1
Company name;ITW WIP PW
Comment;











Channel-X settings
Use the settings from global setup;True
Sensor-X type;Potentiometer
Unit;mm
Used range from;8.000;mm
Used range to;12.000;mm
Decimal places;XXX.XXX
Scaling by;Teach-In
Point 1;-0.380;mm;16.488;%
Point 2;72.105;mm;72.105;%
Invert signal;FALSE
Filter;OFF
Test point;0.000;mm
Tolerance;0.010;mm
Enable sensor test by dig-input;FALSE
Zoom from;0.000;mm
Zoom to;25.000;mm
Master Measurement Enable;FALSE
Master Measurement Nominal Position;0.000;mm
Encoder interpolation factor;-
Encoder electrical interface;-
Encoder referencing type;-
Encoder referencing edge;-
Encoder pulses per minute;-
Encoder use every nth-mark;-
Reference;-
Encoder reference points;-
Encoder coding;-
Encoder width;-
Encoder optimization;-
Encoder clock frequency;-
Termination resistor;-








Channel-Y settings
Use the settings from global setup;True
Sensor-Y type;Piezo
Unit;N
Used range from;0;N
Used range to;190000;N
Decimal places;XXXXXX
Scaling by;Calibration Sheet
Sensitivity;-4.3000;pC/N
-
Invert signal;FALSE
Filter;OFF
Piezo reset;TRUE
Test point;0;N
Tolerance;0;N
Enable sensor test by dig-input;FALSE
Zoom from;0;N
Zoom to;1000;N












Cycle control settings
Use the settings from global setup;True
Measuring function;Y (X)
Delta-X;User-Defined;0.00100;mm
START condition;Threshold-X;8.000;mm;Trigger from;LEFT
STOP condition;Threshold-X;10.500;mm;Trigger from;LEFT
Cycle time out;0.25;s
Turning point RIGHT;NONE
Turning point LEFT;NONE
Cut curve at;NONE










Evaluation settings
Capture only first NOK-EO for statistics;False
Hysteresis X;0.0;%
Hysteresis Y;0.0;%






Trigger Y settings
Threshold at;1608;N
Value X at TRIGGER Y;0.000;mm
Approach from;BELOW






Block settings
Value X at block;XMAX
Block at;0.000;mm







Measuring curve
Number of measuring points;616
Ref. Graph on;ABSOLUTE
Curve segments;0;616;


Time;X(ABSOLUTE);Y;X (ABSOLUTE)


s;mm;N;mm
0.0000;8.20675;-3.11507;8.20675
0.0000;8.21121;0.63043;8.21121
0.0002;8.22446;-1.63170;8.22446
0.0002;8.22516;6.08180;8.22516
0.0003;8.22881;1.37211;8.22881
0.0003;8.23313;1.74295;8.23313
0.0004;8.24231;0.40793;8.24231
0.0004;8.25059;3.96800;8.25059
0.0005;8.25394;4.04217;8.25394
0.0005;8.25616;5.15470;8.25616
0.0006;8.26291;8.60352;8.26291
0.0006;8.27079;11.27358;8.27079
0.0007;8.27204;11.27358;8.27204
0.0008;8.27492;13.38737;8.27492
0.0008;8.27689;13.68405;8.27689
0.0009;8.28149;14.53698;8.28149
0.0010;8.28375;18.35665;8.28375
0.0011;8.28652;19.87710;8.28652
0.0011;8.29042;17.42955;8.29042
0.0012;8.29811;17.80039;8.29811
0.0012;8.30691;17.42955;8.30691
0.0012;8.31139;21.69422;8.31139
0.0013;8.31576;21.76839;8.31576
0.0013;8.32157;20.06252;8.32157
0.0014;8.33078;22.21340;8.33078
0.0014;8.33529;23.21467;8.33529
0.0015;8.34121;18.24540;8.34121
0.0015;8.34420;21.24921;8.34420
0.0016;8.34686;22.65841;8.34686
0.0016;8.34807;21.54589;8.34807
0.0017;8.35059;25.58806;8.35059
0.0017;8.35642;27.70185;8.35642
0.0018;8.36221;31.63277;8.36221
0.0018;8.36648;32.33737;8.36648
0.0019;8.37212;33.48698;8.37212
0.0019;8.37692;37.00997;8.37692
0.0020;8.38192;35.48952;8.38192
0.0020;8.38577;41.64549;8.38577
0.0021;8.39166;43.46261;8.39166
0.0022;8.39569;45.72475;8.39569
0.0022;8.39866;46.98561;8.39866
0.0023;8.40269;46.35518;8.40269
0.0024;8.40612;45.50224;8.40612
0.0024;8.41349;48.43189;8.41349
0.0024;8.41703;48.76565;8.41703
0.0025;8.41971;48.87690;8.41971
0.0025;8.42254;50.69402;8.42254
0.0026;8.42836;51.36154;8.42836
0.0026;8.43070;53.21574;8.43070
0.0027;8.43382;53.21574;8.43382
0.0027;8.43579;55.95997;8.43579
0.0028;8.44000;56.36789;8.44000
0.0028;8.44256;56.96124;8.44256
0.0029;8.44707;61.15175;8.44707
0.0029;8.45226;62.48678;8.45226
0.0030;8.45335;61.59676;8.45335
0.0030;8.45440;66.64020;8.45440
0.0031;8.45789;63.89597;8.45789
0.0031;8.46156;65.04558;8.46156
0.0032;8.46286;65.08267;8.46286
0.0032;8.46702;67.90106;8.46702
0.0033;8.47454;65.26809;8.47454
0.0033;8.47871;66.60312;8.47871
0.0034;8.48206;66.12102;8.48206
0.0034;8.48757;67.23355;8.48757
0.0035;8.49316;68.27190;8.49316
0.0035;8.49492;72.12865;8.49492
0.0036;8.49948;69.12484;8.49948
0.0036;8.50620;75.13247;8.50620
0.0036;8.51067;75.54039;8.51067
0.0037;8.51285;78.17337;8.51285
0.0037;8.51983;79.65673;8.51983
0.0038;8.52707;86.36896;8.52707
0.0038;8.53404;109.58364;8.53404
0.0039;8.54124;236.37431;8.54124
0.0039;8.54478;208.22745;8.54478
0.0040;8.54898;90.81906;8.54898
0.0040;8.55352;128.79322;8.55352
0.0041;8.55744;134.87502;8.55744
0.0041;8.56285;88.11192;8.56285
0.0042;8.56635;94.56456;8.56635
0.0042;8.57050;65.60185;8.57050
0.0043;8.57201;74.72454;8.57201
0.0043;8.57659;101.38804;8.57659
0.0044;8.58144;128.49655;8.58144
0.0045;8.58456;135.76504;8.58456
0.0045;8.58712;111.69743;8.58712
0.0046;8.59354;128.90447;8.59354
0.0046;8.59693;178.07804;8.59693
0.0047;8.59984;328.34298;8.59984
0.0047;8.60208;209.37706;8.60208
0.0048;8.60705;81.91887;8.60705
0.0048;8.61243;178.22638;8.61243
0.0048;8.61750;153.93627;8.61750
0.0049;8.62244;109.39822;8.62244
0.0049;8.62466;139.73304;8.62466
0.0050;8.62983;161.53852;8.62983
0.0050;8.63625;324.67165;8.63625
0.0051;8.63927;202.33107;8.63927
0.0051;8.64225;113.51456;8.64225
0.0052;8.64577;242.60445;8.64577
0.0052;8.64699;207.33743;8.64699
0.0053;8.65037;303.08868;8.65037
0.0053;8.65394;301.56823;8.65394
0.0054;8.65865;97.45712;8.65865
0.0054;8.66394;178.85681;8.66394
0.0055;8.66631;297.04397;8.66631
0.0055;8.67118;288.73712;8.67118
0.0056;8.67187;272.19759;8.67187
0.0056;8.67555;173.66503;8.67555
0.0057;8.67775;278.42773;8.67775
0.0057;8.68191;381.74415;8.68191
0.0058;8.68586;218.05475;8.68586
0.0058;8.68967;226.10201;8.68967
0.0059;8.69347;296.19103;8.69347
0.0059;8.69598;288.25503;8.69598
0.0060;8.70093;303.60786;8.70093
0.0060;8.70334;259.84858;8.70334
0.0060;8.70679;352.37351;8.70679
0.0061;8.71153;363.75834;8.71153
0.0061;8.71181;245.20034;8.71181
0.0062;8.71749;330.86470;8.71749
0.0062;8.72209;356.34151;8.72209
0.0063;8.72777;314.88144;8.72777
0.0063;8.73239;329.19592;8.73239
0.0064;8.73543;314.84436;8.73543
0.0064;8.73762;354.70981;8.73762
0.0065;8.73979;344.91959;8.73979
0.0065;8.74463;329.30717;8.74463
0.0066;8.74634;374.29023;8.74634
0.0066;8.74958;349.40678;8.74958
0.0067;8.75217;344.62292;8.75217
0.0067;8.75612;373.47438;8.75612
0.0068;8.76319;367.35550;8.76319
0.0068;8.76701;390.38475;8.76701
0.0069;8.77117;381.29914;8.77117
0.0069;8.77601;378.03573;8.77601
0.0070;8.78098;406.59052;8.78098
0.0070;8.78669;384.85921;8.78669
0.0071;8.79031;400.39747;8.79031
0.0071;8.79140;426.39345;8.79140
0.0072;8.79217;403.80921;8.79217
0.0072;8.79624;409.92809;8.79624
0.0072;8.79661;417.60451;8.79661
0.0073;8.80017;428.61850;8.80017
0.0073;8.80353;426.91263;8.80353
0.0074;8.80733;412.70940;8.80733
0.0074;8.81186;436.92535;8.81186
0.0075;8.81775;433.77320;8.81775
0.0075;8.82439;432.21566;8.82439
0.0076;8.83253;454.50323;8.83253
0.0076;8.83889;456.24619;8.83889
0.0077;8.84032;466.62974;8.84032
0.0077;8.84232;460.84462;8.84232
0.0078;8.84629;461.84589;8.84629
0.0078;8.85146;470.44941;8.85146
0.0079;8.85392;465.33180;8.85392
0.0079;8.86077;473.74990;8.86077
0.0080;8.86125;479.16418;8.86125
0.0080;8.86570;477.82916;8.86570
0.0081;8.87181;482.13092;8.87181
0.0081;8.87566;492.18072;8.87566
0.0082;8.87459;492.81115;8.87459
0.0082;8.87590;487.84187;8.87590
0.0083;8.88073;489.84442;8.88073
0.0083;8.88322;493.70117;8.88322
0.0084;8.88753;499.48629;8.88753
0.0084;8.89036;494.85078;8.89036
0.0084;8.89449;503.45430;8.89449
0.0085;8.90040;509.01692;8.90040
0.0085;8.90752;511.61281;8.90752
0.0086;8.91193;509.31359;8.91193
0.0086;8.91614;515.24705;8.91614
0.0087;8.92236;523.62807;8.92236
0.0087;8.92697;516.28541;8.92697
0.0088;8.93121;518.80713;8.93121
0.0088;8.93359;527.29940;8.93359
0.0089;8.93871;528.30067;8.93871
0.0089;8.94075;532.97327;8.94075
0.0090;8.94464;536.31085;8.94464
0.0090;8.95053;539.12924;8.95053
0.0091;8.95670;540.68677;8.95670
0.0091;8.96296;543.72767;8.96296
0.0092;8.96721;548.65986;8.96721
0.0092;8.97057;551.58951;8.97057
0.0093;8.97383;549.47572;8.97383
0.0093;8.97522;559.19176;8.97522
0.0094;8.97676;559.26593;8.97676
0.0094;8.98214;561.97307;8.98214
0.0095;8.98654;567.94362;8.98654
0.0095;8.99102;569.64949;8.99102
0.0096;8.99486;571.09577;8.99486
0.0096;8.99823;570.05741;8.99823
0.0096;9.00217;575.62003;9.00217
0.0097;9.00561;581.18266;9.00561
0.0097;9.01320;585.22483;9.01320
0.0098;9.01897;580.14430;9.01897
0.0098;9.02331;588.48823;9.02331
0.0099;9.02907;591.64038;9.02907
0.0099;9.03212;598.38970;9.03212
0.0100;9.03506;600.98559;9.03506
0.0100;9.03731;601.65310;9.03731
0.0101;9.04238;601.31934;9.04238
0.0101;9.04932;605.39860;9.04932
0.0102;9.05268;608.14283;9.05268
0.0102;9.05569;607.54948;9.05569
0.0103;9.05882;607.84615;9.05882
0.0103;9.06293;612.29625;9.06293
0.0104;9.06540;614.29879;9.06540
0.0104;9.07226;614.81797;9.07226
0.0105;9.07555;613.07502;9.07555
0.0105;9.07747;617.41386;9.07747
0.0106;9.08202;620.15809;9.08202
0.0106;9.08583;619.04556;9.08583
0.0107;9.08991;619.82433;9.08991
0.0107;9.09228;624.79361;9.09228
0.0108;9.09529;625.83196;9.09529
0.0108;9.10145;634.76924;9.10145
0.0109;9.10657;639.55309;9.10657
0.0109;9.10963;641.07354;9.10963
0.0110;9.11315;644.41112;9.11315
0.0110;9.11976;649.38039;9.11976
0.0111;9.12499;649.60290;9.12499
0.0111;9.12889;654.16425;9.12889
0.0112;9.13358;651.04918;9.13358
0.0112;9.13803;655.87012;9.13803
0.0113;9.14349;692.36091;9.14349
0.0113;9.14822;775.28105;9.14822
0.0114;9.14957;864.32007;9.14957
0.0114;9.15233;970.97406;9.15233
0.0115;9.15452;1115.41679;9.15452
0.0115;9.15437;1260.71245;9.15437
0.0116;9.15932;1398.73963;9.15932
0.0116;9.16430;1532.61337;9.16430
0.0117;9.16945;1643.19828;9.16945
0.0117;9.17318;1744.69758;9.17318
0.0118;9.17597;1835.96165;9.17597
0.0118;9.17966;1914.28335;9.17966
0.0119;9.18328;2002.43236;9.18328
0.0119;9.18612;2089.20924;9.18612
0.0120;9.18543;2169.94142;9.18543
0.0120;9.18960;2260.09297;9.18960
0.0120;9.19302;2339.60136;9.19302
0.0121;9.19440;2417.84890;9.19440
0.0121;9.19717;2501.51072;9.19717
0.0122;9.19787;2573.45396;9.19787
0.0122;9.20445;2650.03271;9.20445
0.0123;9.20532;2714.59620;9.20532
0.0123;9.20984;2781.12515;9.20984
0.0124;9.20809;2856.44304;9.20809
0.0124;9.21018;2923.97326;9.21018
0.0125;9.21149;2999.55074;9.21149
0.0125;9.21448;3080.87626;9.21448
0.0126;9.21983;3148.85149;9.21983
0.0126;9.22028;3230.80744;9.22028
0.0127;9.22290;3316.84264;9.22290
0.0127;9.22703;3401.72824;9.22703
0.0128;9.23120;3487.91179;9.23120
0.0128;9.23274;3568.94063;9.23274
0.0129;9.23520;3651.37868;9.23520
0.0129;9.23612;3733.44588;9.23612
0.0130;9.23510;3810.50673;9.23510
0.0130;9.23972;3887.49340;9.23972
0.0131;9.23882;3959.51081;9.23882
0.0131;9.23909;4026.59602;9.23909
0.0132;9.23915;4091.04825;9.23915
0.0132;9.24091;4140.48141;9.24091
0.0132;9.24263;4196.99764;9.24263
0.0133;9.24184;4242.68531;9.24184
0.0133;9.24391;4283.29244;9.24391
0.0134;9.24390;4324.19625;9.24390
0.0134;9.24662;4367.54761;9.24662
0.0135;9.24424;4407.33889;9.24424
0.0135;9.24635;4448.42812;9.24635
0.0136;9.24687;4489.81402;9.24687
0.0136;9.24808;4531.83035;9.24808
0.0137;9.24936;4568.72907;9.24936
0.0137;9.24944;4611.30167;9.24944
0.0138;9.25014;4652.94716;9.25014
0.0138;9.25027;4687.54666;9.25027
0.0139;9.25442;4726.04000;9.25442
0.0139;9.25347;4761.93745;9.25347
0.0140;9.25470;4801.69165;9.25470
0.0140;9.25303;4835.51238;9.25303
0.0141;9.25564;4871.44691;9.25564
0.0141;9.26008;4909.34691;9.26008
0.0142;9.26122;4944.61392;9.26122
0.0142;9.26380;4980.54846;9.26380
0.0143;9.26400;5015.29630;9.26400
0.0143;9.26370;5050.71165;9.26370
0.0144;9.26404;5090.35460;9.26404
0.0144;9.26321;5130.22005;9.26321
0.0144;9.26477;5166.22875;9.26477
0.0145;9.26848;5213.17727;9.26848
0.0145;9.26740;5250.15016;9.26740
0.0146;9.26632;5295.31864;9.26632
0.0146;9.26921;5330.28899;9.26921
0.0147;9.26848;5378.23878;9.26848
0.0147;9.27025;5418.28966;9.27025
0.0148;9.27455;5458.30344;9.27455
0.0148;9.27649;5497.46430;9.27649
0.0149;9.27786;5540.55607;9.27786
0.0149;9.27745;5588.24627;9.27745
0.0150;9.28208;5629.63217;9.28208
0.0150;9.28402;5672.79811;9.28402
0.0151;9.28643;5718.04077;9.28643
0.0151;9.28561;5767.06600;9.28561
0.0152;9.28911;5811.38155;9.28911
0.0152;9.29168;5861.37097;9.29168
0.0153;9.29602;5908.20824;9.29602
0.0153;9.29550;5958.16058;9.29550
0.0154;9.29634;6006.59247;9.29634
0.0154;9.29893;6062.47827;9.29893
0.0155;9.29869;6113.13520;9.29869
0.0155;9.30227;6169.28059;9.30227
0.0156;9.30392;6218.89917;9.30392
0.0156;9.30676;6272.55993;9.30676
0.0156;9.31359;6320.13888;9.31359
0.0157;9.31325;6371.87125;9.31325
0.0157;9.31515;6423.67780;9.31515
0.0158;9.31925;6481.41781;9.31925
0.0158;9.31924;6537.34069;9.31924
0.0159;9.32071;6589.40682;9.32071
0.0159;9.32528;6639.76709;9.32528
0.0160;9.32658;6694.09535;9.32658
0.0160;9.32841;6743.67685;9.32841
0.0161;9.32991;6799.82224;9.32991
0.0161;9.33099;6854.59552;9.33099
0.0162;9.33044;6913.18846;9.33044
0.0162;9.33099;6965.14334;9.33099
0.0163;9.33471;7016.91280;9.33471
0.0163;9.33386;7073.54028;9.33386
0.0164;9.33702;7125.49517;9.33702
0.0164;9.34115;7177.67255;9.34115
0.0165;9.34138;7230.96246;9.34138
0.0165;9.34306;7279.87644;9.34306
0.0166;9.34621;7333.38886;9.34621
0.0166;9.35288;7382.26576;9.35288
0.0167;9.35717;7434.33189;9.35717
0.0167;9.36265;7479.90830;9.36265
0.0168;9.36857;7529.26729;9.36857
0.0168;9.37425;7572.69282;9.37425
0.0168;9.37653;7624.31394;9.37653
0.0169;9.37848;7668.70366;9.37848
0.0169;9.38579;7711.16500;9.38579
0.0170;9.38783;7752.77341;9.38783
0.0170;9.38942;7791.37800;9.38942
0.0171;9.39213;7830.61302;9.39213
0.0171;9.39596;7865.24961;9.39596
0.0172;9.39683;7901.48081;9.39683
0.0172;9.40117;7934.63404;9.40117
0.0173;9.40423;7967.56475;9.40423
0.0173;9.40681;7992.93030;9.40681
0.0174;9.41199;8020.96592;9.41199
0.0174;9.41262;8045.88646;9.41262
0.0175;9.41371;8070.17657;9.41371
0.0175;9.41645;8089.05240;9.41645
0.0176;9.42167;8110.15327;9.42167
0.0176;9.42842;8121.90895;9.42842
0.0177;9.42961;8139.33849;9.42961
0.0177;9.43084;8151.53918;9.43084
0.0178;9.43196;8162.92401;9.43196
0.0178;9.43307;8174.34592;9.43307
0.0179;9.43552;8179.79729;9.43552
0.0179;9.44058;8188.99416;9.44058
0.0180;9.44325;8194.37136;9.44325
0.0180;9.44530;8199.48897;9.44530
0.0180;9.44840;8206.68329;9.44840
0.0181;9.45414;8211.13339;9.45414
0.0181;9.45718;8211.91216;9.45718
0.0182;9.45926;8214.21137;9.45926
0.0182;9.46442;8213.87762;9.46442
0.0183;9.46732;8212.50550;9.46732
0.0183;9.47071;8214.54513;9.47071
0.0184;9.47222;8214.91597;9.47222
0.0184;9.47555;8214.13721;9.47555
0.0185;9.47939;8212.39425;9.47939
0.0185;9.48235;8208.05541;9.48235
0.0186;9.48391;8207.57331;9.48391
0.0186;9.48581;8204.71783;9.48581
0.0187;9.48750;8201.56568;9.48750
0.0187;9.49183;8197.07850;9.49183
0.0188;9.49576;8192.25756;9.49576
0.0188;9.49967;8190.51461;9.49967
0.0189;9.50758;8185.28574;9.50758
0.0189;9.51227;8183.43154;9.51227
0.0190;9.51387;8176.57097;9.51387
0.0190;9.51743;8167.67078;9.51743
0.0191;9.51931;8160.77313;9.51931
0.0191;9.52348;8152.02127;9.52348
0.0192;9.52618;8141.67479;9.52618
0.0192;9.53102;8133.66462;9.53102
0.0192;9.53599;8122.83605;9.53599
0.0193;9.54167;8107.07529;9.54167
0.0193;9.54488;8093.20582;9.54488
0.0194;9.54979;8076.25837;9.54979
0.0194;9.55334;8057.97589;9.55334
0.0195;9.55553;8037.80212;9.55553
0.0195;9.55786;8018.85212;9.55786
0.0196;9.56098;7990.81651;9.56098
0.0196;9.56503;7966.45223;9.56503
0.0197;9.56595;7939.93707;9.56595
0.0197;9.56960;7912.86564;9.56960
0.0198;9.57531;7883.08708;9.57531
0.0198;9.57622;7850.11928;9.57622
0.0199;9.57931;7823.12202;9.57931
0.0199;9.58061;7789.15295;9.58061
0.0200;9.58485;7754.18261;9.58485
0.0200;9.58649;7717.84015;9.58649
0.0201;9.58980;7682.23937;9.58980
0.0201;9.59404;7643.74603;9.59404
0.0202;9.60135;7599.98675;9.60135
0.0202;9.60806;7562.53177;9.60806
0.0203;9.61685;7517.43745;9.61685
0.0203;9.62588;7472.71398;9.62588
0.0204;9.63019;7424.46751;9.63019
0.0204;9.63528;7378.07525;9.63528
0.0204;9.63668;7323.89532;9.63668
0.0205;9.63886;7274.46216;9.63886
0.0205;9.64389;7216.64798;9.64389
0.0206;9.65026;7154.04995;9.65026
0.0206;9.65341;7086.07472;9.65341
0.0207;9.65923;7012.24020;9.65923
0.0207;9.66618;6931.39677;9.66618
0.0208;9.67115;6826.74533;9.67115
0.0208;9.67613;6689.64526;9.67613
0.0209;9.67932;6467.77084;9.67932
0.0209;9.68117;5989.42251;9.68117
0.0210;9.67923;5207.87424;9.67923
0.0210;9.68101;4696.44685;9.68101
0.0211;9.68429;4345.92755;9.68429
0.0211;9.68546;3928.95347;9.68546
0.0212;9.68946;3601.53759;9.68946
0.0212;9.69531;3439.33156;9.69531
0.0213;9.70045;3271.08081;9.70045
0.0213;9.70718;3135.57536;9.70718
0.0214;9.71659;2875.24469;9.71659
0.0214;9.72550;2548.08840;9.72550
0.0215;9.73447;2080.67989;9.73447
0.0215;9.74507;1411.94158;9.74507
0.0216;9.75382;1100.28646;9.75382
0.0216;9.76058;1217.39818;9.76058
0.0216;9.76504;967.52524;9.76504
0.0217;9.77260;817.77947;9.77260
0.0217;9.77763;1124.53949;9.77763
0.0218;9.78487;1202.15659;9.78487
0.0218;9.79429;1259.48868;9.79429
0.0219;9.80353;1429.66780;9.80353
0.0219;9.81094;1306.02927;9.81094
0.0220;9.81462;1179.86903;9.81462
0.0220;9.81617;1133.66219;9.81617
0.0221;9.82349;967.00606;9.82349
0.0221;9.83297;955.91790;9.83297
0.0222;9.84259;1022.59518;9.84259
0.0222;9.85219;978.42797;9.85219
0.0223;9.86046;1070.58206;9.86046
0.0223;9.86719;1174.15807;9.86719
0.0224;9.87864;1128.69291;9.87864
0.0224;9.88701;1116.86307;9.88701
0.0225;9.89136;1062.86856;9.89136
0.0225;9.89582;936.81957;9.89582
0.0226;9.90130;880.89668;9.90130
0.0226;9.90315;858.53495;9.90315
0.0227;9.90714;859.05412;9.90714
0.0227;9.91315;917.12789;9.91315
0.0228;9.91903;982.21056;9.91903
0.0228;9.93062;1017.29215;9.93062
0.0228;9.94202;1051.78040;9.94202
0.0229;9.95184;1061.86729;9.95184
0.0229;9.95813;1018.77552;9.95813
0.0230;9.96354;966.82064;9.96354
0.0230;9.96756;922.98718;9.96756
0.0231;9.97606;860.38915;9.97606
0.0231;9.98093;844.29464;9.98093
0.0232;9.98168;869.88269;9.98168
0.0232;9.98883;884.82760;9.98883
0.0233;9.99599;909.71106;9.99599
0.0233;10.00338;928.51272;10.00338
0.0234;10.00961;934.55743;10.00961
0.0234;10.01485;915.64452;10.01485
0.0235;10.02021;893.91322;10.02021
0.0235;10.02919;873.55402;10.02919
0.0236;10.03693;865.21009;10.03693
0.0236;10.04115;867.17555;10.04115
0.0237;10.04556;877.70745;10.04556
0.0237;10.04803;915.79286;10.04803
0.0238;10.05309;944.90391;10.05309
0.0238;10.05783;945.68268;10.05783
0.0239;10.05969;938.37710;10.05969
0.0239;10.06377;913.67906;10.06377
0.0240;10.07180;875.25989;10.07180
0.0240;10.07609;842.06959;10.07609
0.0240;10.08192;823.60168;10.08192
0.0241;10.08741;822.67458;10.08741
0.0241;10.09212;836.87781;10.09212
0.0242;10.09598;867.13847;10.09598
0.0242;10.09892;907.78268;10.09892
0.0243;10.10150;932.40655;10.10150
0.0243;10.10620;943.49471;10.10620
0.0244;10.11081;938.26585;10.11081
0.0244;10.11275;929.14315;10.11275
0.0245;10.11324;919.87211;10.11324
0.0245;10.11901;910.34149;10.11901
0.0246;10.11947;916.86830;10.11947
0.0247;10.12013;922.95010;10.12013
0.0247;10.12096;934.37201;10.12096
0.0248;10.12390;942.90137;10.12390
0.0248;10.12541;934.55743;10.12541
0.0249;10.12932;919.35294;10.12932
0.0249;10.13322;909.15480;10.13322
0.0250;10.14080;902.18298;10.14080
0.0251;10.14002;925.24931;10.14002
0.0251;10.14209;952.54324;10.14209
0.0252;10.14515;981.80263;10.14515
0.0252;10.14766;1003.68227;10.14766
0.0252;10.14982;1022.55810;10.14982
0.0254;10.15449;1010.09783;10.15449
0.0254;10.15399;1000.78971;10.15399
0.0255;10.15605;990.59157;10.15605
0.0256;10.15763;997.86006;10.15763
0.0256;10.15710;1010.61701;10.15710
0.0257;10.15543;1026.52610;10.15543
0.0257;10.15671;1036.61299;10.15671
0.0258;10.15542;1047.21905;10.15542
0.0258;10.15796;1048.85076;10.15796
0.0259;10.15988;1053.15252;10.15988
0.0259;10.16185;1060.27267;10.16185
0.0260;10.16109;1077.07179;10.16109
0.0260;10.16066;1097.57932;10.16066
0.0261;10.16346;1118.01268;10.16346
0.0261;10.16321;1142.93322;10.16321
0.0262;10.16341;1155.20807;10.16341
0.0262;10.16169;1157.47021;10.16169
0.0263;10.16180;1150.38713;10.16180
0.0264;10.16577;1135.73890;10.16577
0.0264;10.16482;1124.31698;10.16482
0.0265;10.16708;1126.72745;10.16708
0.0265;10.16591;1137.85269;10.16591
0.0266;10.16701;1154.16972;10.16701
0.0266;10.16657;1173.63889;10.16657
0.0267;10.17036;1184.76413;10.17036
0.0267;10.16962;1193.92392;10.16962
0.0268;10.17217;1199.04153;10.17217
0.0269;10.17557;1203.71413;10.17557
0.0270;10.17753;1206.86628;10.17753
0.0271;10.17828;1214.57978;10.17828
0.0272;10.18325;1208.60924;10.18325
0.0273;10.18565;1194.48018;10.18565
0.0273;10.18680;1184.24495;10.18680
0.0274;10.18862;1175.27059;10.18862
0.0274;10.19177;1170.26423;10.19177
0.0275;10.19701;1171.52509;10.19701
0.0275;10.20185;1177.94065;10.20185
0.0276;10.20661;1185.65415;10.20661
0.0276;10.21005;1196.37147;10.21005
0.0276;10.21404;1195.70395;10.21404
0.0277;10.22010;1199.59779;10.22010
0.0277;10.22682;1191.03135;10.22682
0.0278;10.23158;1175.04809;10.23158
0.0278;10.23743;1164.21952;10.23743
0.0279;10.24741;1153.76179;10.24741
0.0279;10.25444;1144.86160;10.25444
0.0280;10.25969;1138.40896;10.25969
0.0280;10.26354;1135.18264;10.26354
0.0281;10.27006;1136.62892;10.27006
0.0281;10.27451;1136.92559;10.27451
0.0282;10.27841;1131.36297;10.27841
0.0282;10.28272;1126.13411;10.28272
0.0283;10.28538;1120.97941;10.28538
0.0283;10.29049;1117.71601;10.29049
0.0284;10.29635;1111.00378;10.29635
0.0284;10.29853;1114.71219;10.29853
0.0285;10.30218;1120.27481;10.30218
0.0285;10.30552;1130.76962;10.30552
0.0286;10.30717;1130.28753;10.30717
0.0286;10.31367;1132.03048;10.31367
0.0287;10.32215;1127.06121;10.32215
0.0287;10.32771;1115.08303;10.32771
0.0288;10.33212;1099.47061;10.33212
0.0288;10.33606;1088.79038;10.33606
0.0288;10.34235;1081.18813;10.34235
0.0289;10.34983;1082.74566;10.34983
0.0289;10.35565;1085.97198;10.35565
0.0290;10.36189;1094.76092;10.36189
0.0290;10.36729;1104.40280;10.36729
0.0291;10.37131;1114.30427;10.37131
0.0291;10.37410;1120.97941;10.37410
0.0292;10.37732;1122.53694;10.37732
0.0292;10.37988;1122.75945;10.37988
0.0293;10.38229;1115.93597;10.38229
0.0293;10.38597;1111.96796;10.38597
0.0294;10.38732;1106.44243;10.38732
0.0294;10.39203;1102.58568;10.39203
0.0295;10.40027;1097.46807;10.40027
0.0295;10.40583;1099.32227;10.40583
0.0296;10.40719;1096.98597;10.40719
0.0296;10.41506;1098.69184;10.41506
0.0297;10.42060;1098.61767;10.42060
0.0297;10.42662;1098.58059;10.42662
0.0298;10.43120;1099.47061;10.43120
0.0298;10.43550;1098.54351;10.43550
0.0299;10.44035;1099.21102;10.44035
0.0299;10.44671;1100.99106;10.44671
0.0300;10.45304;1109.26082;10.45304
0.0300;10.45514;1111.85671;10.45514
0.0300;10.45760;1113.22883;10.45760
0.0301;10.46003;1115.93597;10.46003
0.0301;10.46176;1115.26845;10.46176
0.0302;10.46500;1113.59967;10.46500
0.0302;10.46886;1116.12139;10.46886
0.0303;10.47346;1119.08812;10.47346
0.0303;10.47444;1114.08176;10.47444
0.0304;10.48046;1108.40789;10.48046
0.0304;10.48547;1103.73529;10.48547
0.0305;10.49388;1101.54732;10.49388
0.0305;10.50038;1099.54478;10.50038
