Part protocol
Network name;Part_Maxymos_1_MP-001_2017-03-14_14-18-39_Sila_bl_trans150obr_tepy_020_OK.csv
Protocol version;3.01.00






Result information
Date;2017/03/14
Time;14:18:39
Cycle number;20
Total result;OK
Triggered switch signals
Part serial number;Sila_bl_trans150obr_tepy_020
Measuring program name;BL_rans
Measuring program number;1
Zero X offset;0.000;mm
Tara Y offset;0;N









Process values - curve related
Block X;10.506;mm;XMIN-X;8.131;mm
Block Y;1216;N;XMIN-Y;0;N
Ref X;9.164;mm;XMAX-X;10.506;mm
Peak-peak X;2.375;mm;XMAX-Y;1216;N
Peak-peak Y;8245;N;YMIN-X;8.131;mm
;;;YMIN-Y;0;N
;;;YMAX-X;9.456;mm
;;;YMAX-Y;8245;N

Process values - EO related;Result;Entry;Exit;XMIN-X;XMIN-Y;XMAX-X;XMAX-Y;YMIN-Y;YMIN-X;YMAX-Y;YMAX-X;Calculated result;NOK cause;Violation X;Violation Y;Ref X;Ref Y;Switch force;Y-Diff;X-Diff;Force deviation ratio;Click ratio;Contact edge
;;;;mm;N;mm;N;N;mm;N;mm;-;-;-;-;-;-;-;-;-;-;-;-;
EO-01;OK;9.150;;;;;;;;;;;;;;;;
EO-02;OK;;;;;;;;;;;-0.3065;;;;;;
EO-03;OK;;;;;;;;;;;;;;;;;
EO-04;None;
EO-05;None;
EO-06;None;
EO-07;None;
EO-08;None;
EO-09;None;
EO-10;None;


















Evaluation objects settings;Reaction;X reference;Y-Reference;XMin;XMax;YMin;YMax;Entry;Exit;Curve part;Catch zone X;Catch zone Y;EO Name;EO description;Re-entry ignored;Generate statistics;X-Hysteresis;Y-Hysteresis;Down sampling rate;Calc limit min;Calc limit max;Grad limit min;Grad limit max;Hyst limit min;Hyst limit max;Speed limit min;Speed limit max;Time limit min;Time limit max;Is curve inside box;GetRef type;CalcInput1 | dx;CalcInput2 | dx;Calc operation;Average limit min;Average limit max;Break max bending;Visualization offset X;Visualization offset Y;-;-;-
EO-01;LINE-X;ABSOLUTE;ABSOLUTE;8.689;9.496;1000;;BELOW;NONE;ANY;+50%;+0%;;;FALSE;TRUE;0.0;0.0;1;;;;;;;;;;;;;;;;;;;0.000;0;;;
EO-02;CALC;ABSOLUTE;ABSOLUTE;7.603;;4166;;NONE;NONE;ANY;+0%;+0%;;;FALSE;TRUE;0.0;0.0;1;-0.360000;-0.280000;;;;;;;;;;;EO-01 | ENTRY;PV_TABLE_CURVE | YMAX-X;Subtraction;;;;0.000;0;;;
EO-03;NO-PASS;ABSOLUTE;ABSOLUTE;7.653;12.250;8743;;NONE;NONE;ANY;+0%;+0%;;;FALSE;TRUE;0.0;0.0;1;;;;;;;;;;;;;;;;;;;0.000;0;;;
EO-04;OFF
EO-05;OFF
EO-06;OFF
EO-07;OFF
EO-08;OFF
EO-09;OFF
EO-10;OFF



















Switch signal settings;Channel;Threshold at;;Trigger from;Reference;Latch until
Type S1;X;9.860;mm;LEFT;ABSOLUTE;None
Type S2;X;11.480;mm;LEFT;ABSOLUTE;None

















Device information
Device type;maXYmos TL
Device type number;5877A0
Device serial number;4915791
Firmware version;1.1.12 (r21150-TL_v1.1.x)
-
-
-
-
-
IP Address;192.168.21.10
Network name;Maxymos 1
Profibus address;10
-
-
-
Station name;Maxymos 1
Company name;ITW WIP PW
Comment;











Channel-X settings
Use the settings from global setup;True
Sensor-X type;Potentiometer
Unit;mm
Used range from;8.000;mm
Used range to;12.000;mm
Decimal places;XXX.XXX
Scaling by;Teach-In
Point 1;-0.380;mm;16.488;%
Point 2;72.105;mm;72.105;%
Invert signal;FALSE
Filter;OFF
Test point;0.000;mm
Tolerance;0.010;mm
Enable sensor test by dig-input;FALSE
Zoom from;0.000;mm
Zoom to;25.000;mm
Master Measurement Enable;FALSE
Master Measurement Nominal Position;0.000;mm
Encoder interpolation factor;-
Encoder electrical interface;-
Encoder referencing type;-
Encoder referencing edge;-
Encoder pulses per minute;-
Encoder use every nth-mark;-
Reference;-
Encoder reference points;-
Encoder coding;-
Encoder width;-
Encoder optimization;-
Encoder clock frequency;-
Termination resistor;-








Channel-Y settings
Use the settings from global setup;True
Sensor-Y type;Piezo
Unit;N
Used range from;0;N
Used range to;190000;N
Decimal places;XXXXXX
Scaling by;Calibration Sheet
Sensitivity;-4.3000;pC/N
-
Invert signal;FALSE
Filter;OFF
Piezo reset;TRUE
Test point;0;N
Tolerance;0;N
Enable sensor test by dig-input;FALSE
Zoom from;0;N
Zoom to;1000;N












Cycle control settings
Use the settings from global setup;True
Measuring function;Y (X)
Delta-X;User-Defined;0.00100;mm
START condition;Threshold-X;8.000;mm;Trigger from;LEFT
STOP condition;Threshold-X;10.500;mm;Trigger from;LEFT
Cycle time out;0.25;s
Turning point RIGHT;NONE
Turning point LEFT;NONE
Cut curve at;NONE










Evaluation settings
Capture only first NOK-EO for statistics;False
Hysteresis X;0.0;%
Hysteresis Y;0.0;%






Trigger Y settings
Threshold at;1608;N
Value X at TRIGGER Y;0.000;mm
Approach from;BELOW






Block settings
Value X at block;XMAX
Block at;0.000;mm







Measuring curve
Number of measuring points;624
Ref. Graph on;ABSOLUTE
Curve segments;0;624;


Time;X(ABSOLUTE);Y;X (ABSOLUTE)


s;mm;N;mm
0.0000;8.13105;-0.29667;8.13105
0.0000;8.13603;3.22632;8.13603
0.0002;8.14596;3.30049;8.14596
0.0002;8.15219;7.19432;8.15219
0.0003;8.15860;3.04090;8.15860
0.0003;8.16353;4.63552;8.16353
0.0004;8.17211;5.89638;8.17211
0.0004;8.18020;6.45264;8.18020
0.0005;8.18453;6.41556;8.18453
0.0005;8.18887;4.93219;8.18887
0.0006;8.19479;5.85929;8.19479
0.0006;8.19821;2.59589;8.19821
0.0007;8.20147;9.79021;8.20147
0.0007;8.20717;3.74550;8.20717
0.0008;8.20434;3.59716;8.20434
0.0008;8.20989;3.41174;8.20989
0.0009;8.21315;-0.03708;8.21315
0.0010;8.21862;6.08180;8.21862
0.0010;8.22364;7.37974;8.22364
0.0011;8.23207;11.45900;8.23207
0.0011;8.23889;15.01908;8.23889
0.0012;8.24264;20.61878;8.24264
0.0012;8.25147;29.07397;8.25147
0.0012;8.25332;27.92436;8.25332
0.0013;8.25581;31.52152;8.25581
0.0013;8.26127;37.60332;8.26127
0.0014;8.26814;39.90254;8.26814
0.0014;8.26980;46.42934;8.26980
0.0015;8.27440;51.58404;8.27440
0.0015;8.27627;52.21447;8.27627
0.0017;8.28194;54.21701;8.28194
0.0018;8.28310;51.25028;8.28310
0.0018;8.28559;47.02269;8.28559
0.0019;8.28866;44.72347;8.28866
0.0019;8.29246;44.53805;8.29246
0.0020;8.29819;41.64549;8.29819
0.0020;8.30424;45.05723;8.30424
0.0021;8.31333;47.13394;8.31333
0.0021;8.31944;46.94852;8.31944
0.0022;8.32631;49.09940;8.32631
0.0022;8.33507;48.20938;8.33507
0.0023;8.33730;48.46897;8.33730
0.0023;8.33889;48.09813;8.33889
0.0024;8.34275;50.47152;8.34275
0.0024;8.34648;51.95488;8.34648
0.0024;8.34896;49.84109;8.34896
0.0025;8.35565;54.66202;8.35565
0.0025;8.36129;52.54823;8.36129
0.0026;8.36666;56.21956;8.36666
0.0026;8.36867;56.10831;8.36867
0.0027;8.37315;52.77073;8.37315
0.0027;8.37782;54.29118;8.37782
0.0028;8.38197;53.58658;8.38197
0.0028;8.38622;56.18247;8.38622
0.0029;8.38815;60.63257;8.38815
0.0029;8.39608;61.11466;8.39608
0.0030;8.39763;62.96887;8.39763
0.0030;8.40162;64.22973;8.40162
0.0031;8.40768;67.60439;8.40768
0.0031;8.40704;73.53785;8.40704
0.0032;8.41031;76.80126;8.41031
0.0032;8.41282;80.50967;8.41282
0.0033;8.41826;86.29480;8.41826
0.0033;8.42248;89.55820;8.42248
0.0034;8.42769;90.26280;8.42769
0.0034;8.42951;94.60164;8.42951
0.0035;8.43339;93.52620;8.43339
0.0035;8.43984;94.37914;8.43984
0.0036;8.44449;98.42131;8.44449
0.0036;8.44611;99.64509;8.44611
0.0036;8.44942;100.12718;8.44942
0.0037;8.45311;96.67836;8.45311
0.0037;8.45535;93.15536;8.45535
0.0038;8.45696;91.85742;8.45696
0.0038;8.46124;93.19245;8.46124
0.0039;8.46577;89.33570;8.46577
0.0040;8.47006;84.03266;8.47006
0.0040;8.47585;84.18100;8.47585
0.0041;8.48222;87.29607;8.48222
0.0041;8.48690;85.44186;8.48690
0.0042;8.49218;83.06848;8.49218
0.0042;8.49490;86.18354;8.49490
0.0043;8.50082;90.96740;8.50082
0.0043;8.50663;90.48530;8.50663
0.0044;8.51173;93.63746;8.51173
0.0044;8.51517;92.07992;8.51517
0.0045;8.51813;95.15791;8.51813
0.0045;8.52219;98.97757;8.52219
0.0046;8.52884;104.91103;8.52884
0.0046;8.53735;139.88138;8.53735
0.0047;8.54246;311.13594;8.54246
0.0047;8.54702;291.77802;8.54702
0.0048;8.54807;122.00682;8.54807
0.0048;8.55361;153.41709;8.55361
0.0048;8.55933;182.12022;8.55933
0.0049;8.56425;108.87904;8.56425
0.0049;8.57026;113.81123;8.57026
0.0050;8.57356;78.87797;8.57356
0.0050;8.57884;80.76926;8.57884
0.0051;8.57949;121.45056;8.57949
0.0051;8.58115;125.64107;8.58115
0.0052;8.58297;164.17149;8.58297
0.0052;8.58624;191.09458;8.58624
0.0053;8.58796;161.83519;8.58796
0.0053;8.59383;183.52941;8.59383
0.0054;8.59535;172.62668;8.59535
0.0054;8.60130;152.48999;8.60130
0.0055;8.60386;205.52031;8.60386
0.0055;8.60974;424.09424;8.60974
0.0056;8.61705;403.06753;8.61705
0.0056;8.62095;184.79027;8.62095
0.0057;8.62693;223.35778;8.62693
0.0057;8.63507;290.88800;8.63507
0.0058;8.63738;159.12805;8.63738
0.0058;8.64195;160.64850;8.64195
0.0059;8.64340;120.59763;8.64340
0.0059;8.64465;100.16426;8.64465
0.0060;8.64641;385.52673;8.64641
0.0060;8.64993;426.09678;8.64993
0.0060;8.65351;218.79643;8.65351
0.0061;8.65810;274.34847;8.65810
0.0061;8.66009;272.01217;8.66009
0.0062;8.66372;206.22491;8.66372
0.0062;8.66708;322.22410;8.66708
0.0063;8.67276;413.26567;8.67276
0.0063;8.67449;246.90621;8.67449
0.0064;8.67804;138.76886;8.67804
0.0064;8.68175;242.93821;8.68175
0.0065;8.68748;343.06539;8.68748
0.0065;8.69218;515.28414;8.69218
0.0066;8.69716;407.92555;8.69716
0.0066;8.70015;181.86063;8.70015
0.0067;8.70175;275.94309;8.70175
0.0067;8.70477;416.41782;8.70477
0.0068;8.70612;437.14785;8.70612
0.0068;8.70976;298.56442;8.70976
0.0069;8.71522;214.04966;8.71522
0.0069;8.71869;386.26841;8.71869
0.0070;8.72021;505.67935;8.72021
0.0070;8.72645;376.25569;8.72645
0.0071;8.73335;320.14739;8.73335
0.0071;8.73604;421.98044;8.73604
0.0072;8.74229;451.42525;8.74229
0.0072;8.74408;378.62908;8.74408
0.0072;8.74884;334.23936;8.74884
0.0073;8.75224;455.61575;8.75224
0.0073;8.75473;491.58737;8.75473
0.0074;8.75789;331.19846;8.75789
0.0074;8.75853;393.94483;8.75853
0.0075;8.76300;488.17563;8.76300
0.0075;8.76838;455.80118;8.76838
0.0076;8.77424;426.28220;8.77424
0.0076;8.77555;438.48288;8.77555
0.0077;8.78126;491.29070;8.78126
0.0077;8.78291;427.58014;8.78291
0.0078;8.78719;417.08533;8.78719
0.0078;8.79258;472.22945;8.79258
0.0079;8.79263;435.59032;8.79263
0.0079;8.79662;424.27966;8.79662
0.0080;8.79614;450.90607;8.79614
0.0080;8.80033;447.08640;8.80033
0.0081;8.80526;463.88552;8.80526
0.0081;8.80976;483.91095;8.80976
0.0082;8.81260;468.40978;8.81260
0.0082;8.81483;468.22436;8.81483
0.0083;8.82372;463.95969;8.82372
0.0083;8.83016;459.99168;8.83016
0.0084;8.84021;488.91731;8.84021
0.0084;8.84506;495.25870;8.84506
0.0084;8.84753;483.09510;8.84753
0.0085;8.85050;501.48884;8.85050
0.0085;8.85553;530.19196;8.85553
0.0086;8.86091;534.67914;8.86091
0.0086;8.86547;519.66007;8.86547
0.0087;8.86816;530.19196;8.86816
0.0087;8.86901;520.43883;8.86901
0.0088;8.87132;513.24451;8.87132
0.0088;8.87395;520.17924;8.87395
0.0089;8.87978;527.41065;8.87978
0.0089;8.88303;555.00125;8.88303
0.0090;8.88709;544.35810;8.88709
0.0091;8.88992;562.12141;8.88992
0.0091;8.89515;564.23520;8.89515
0.0092;8.89993;559.41427;8.89993
0.0092;8.90564;559.74802;8.90564
0.0093;8.91150;558.52425;8.91150
0.0093;8.91357;558.11632;8.91357
0.0094;8.92104;574.84127;8.92104
0.0094;8.92446;589.52659;8.92446
0.0095;8.92920;591.12121;8.92920
0.0095;8.93108;587.11612;8.93108
0.0096;8.93672;590.00868;8.93672
0.0096;8.94102;588.48823;8.94102
0.0096;8.94578;572.69039;8.94578
0.0097;8.95149;565.57023;8.95149
0.0097;8.95511;576.21338;8.95511
0.0098;8.96334;577.47424;8.96334
0.0098;8.97004;568.53696;8.97004
0.0099;8.97396;573.43207;8.97396
0.0099;8.97418;588.15447;8.97418
0.0100;8.97863;592.93833;8.97863
0.0100;8.98289;587.67238;8.98289
0.0101;8.98605;589.37825;8.98605
0.0102;8.99122;596.12756;8.99122
0.0102;8.99684;603.98940;8.99684
0.0103;8.99811;608.51367;8.99811
0.0103;9.00294;613.74253;9.00294
0.0104;9.00972;624.97903;9.00972
0.0104;9.01212;634.25006;9.01212
0.0105;9.01915;636.69761;9.01915
0.0105;9.02630;638.84849;9.02630
0.0106;9.03286;638.58891;9.03286
0.0106;9.03578;644.59654;9.03578
0.0107;9.03983;635.88176;9.03983
0.0107;9.04571;640.48020;9.04571
0.0108;9.05130;647.26659;9.05130
0.0108;9.05622;655.01718;9.05622
0.0108;9.05865;654.27550;9.05865
0.0109;9.06250;653.01464;9.06250
0.0109;9.06380;663.10152;9.06380
0.0110;9.07041;667.81121;9.07041
0.0110;9.07421;671.44545;9.07421
0.0111;9.07860;668.92373;9.07860
0.0111;9.08224;671.29712;9.08224
0.0112;9.08619;672.40964;9.08619
0.0112;9.08805;671.66796;9.08805
0.0113;9.09000;678.71395;9.09000
0.0114;9.09409;682.08860;9.09409
0.0114;9.09806;686.31620;9.09806
0.0115;9.10013;681.60651;9.10013
0.0115;9.10614;682.12569;9.10614
0.0116;9.11095;679.82647;9.11095
0.0116;9.11525;681.27275;9.11525
0.0117;9.12002;675.37637;9.12002
0.0117;9.12557;668.92373;9.12557
0.0118;9.12937;672.70632;9.12937
0.0118;9.13365;685.57451;9.13365
0.0119;9.14074;713.94388;9.14074
0.0119;9.14339;783.10580;9.14339
0.0120;9.14533;866.84179;9.14533
0.0120;9.14884;967.04314;9.14884
0.0120;9.15320;1098.69184;9.15320
0.0121;9.15436;1232.52851;9.15436
0.0121;9.15539;1365.84599;9.15539
0.0122;9.15925;1502.61230;9.15925
0.0122;9.16430;1621.91199;9.16430
0.0123;9.16882;1734.94445;9.16882
0.0123;9.17609;1839.33630;9.17609
0.0124;9.17974;1933.08501;9.17974
0.0124;9.18168;2024.79409;9.18168
0.0125;9.18123;2116.57734;9.18123
0.0125;9.18290;2202.20462;9.18290
0.0126;9.18818;2289.76028;9.18818
0.0126;9.18928;2377.50136;9.18928
0.0127;9.18922;2457.56602;9.18922
0.0127;9.19325;2540.18948;9.19325
0.0128;9.19698;2617.36158;9.19698
0.0128;9.19955;2687.89562;9.19955
0.0129;9.20352;2763.69560;9.20352
0.0129;9.20585;2828.03658;9.20585
0.0130;9.21029;2898.60770;9.21029
0.0130;9.21155;2966.54585;9.21155
0.0131;9.21477;3035.85611;9.21477
0.0131;9.21461;3106.79807;9.21461
0.0132;9.21806;3173.73494;9.21806
0.0132;9.22206;3250.68454;9.22206
0.0132;9.22396;3333.49342;9.22396
0.0133;9.22597;3418.82403;9.22597
0.0133;9.23051;3505.41550;9.23051
0.0134;9.23220;3591.00570;9.23220
0.0134;9.23278;3674.48210;9.23278
0.0135;9.23391;3756.17846;9.23391
0.0135;9.23777;3835.50144;9.23777
0.0136;9.23613;3911.59810;9.23613
0.0136;9.23531;3977.42245;9.23531
0.0137;9.23735;4044.95267;9.23735
0.0137;9.23961;4103.43436;9.23961
0.0138;9.24030;4165.47612;9.24030
0.0138;9.23886;4215.72514;9.23886
0.0139;9.23978;4265.30663;9.23978
0.0139;9.24225;4309.54801;9.24225
0.0140;9.24169;4355.01317;9.24169
0.0140;9.24770;4403.70465;9.24770
0.0141;9.24838;4451.95111;9.24838
0.0141;9.24657;4497.30502;9.24657
0.0142;9.24980;4538.72800;9.24980
0.0142;9.25139;4587.56782;9.25139
0.0143;9.25142;4634.03424;9.25142
0.0143;9.25112;4675.49431;9.25112
0.0144;9.25522;4719.21652;9.25522
0.0144;9.25687;4758.37737;9.25687
0.0144;9.25718;4798.09448;9.25718
0.0145;9.26028;4837.44076;9.26028
0.0145;9.26062;4876.34202;9.26062
0.0146;9.25873;4915.94788;9.25873
0.0146;9.26208;4954.44122;9.26208
0.0147;9.26642;4990.82076;9.26642
0.0147;9.26437;5024.08524;9.26437
0.0148;9.26334;5061.57730;9.26334
0.0148;9.26644;5099.03229;9.26644
0.0149;9.26646;5139.15733;9.26646
0.0149;9.26641;5179.13403;9.26641
0.0150;9.26761;5220.77952;9.26761
0.0150;9.27305;5269.02599;9.27305
0.0151;9.27028;5311.89526;9.27028
0.0151;9.26910;5352.50239;9.26910
0.0152;9.27101;5398.04171;9.27101
0.0152;9.27272;5440.61431;9.27272
0.0153;9.27440;5484.41068;9.27440
0.0153;9.27795;5528.09580;9.27795
0.0154;9.28047;5571.03923;9.28047
0.0154;9.27927;5616.91231;9.27927
0.0155;9.27908;5669.94264;9.27908
0.0155;9.28152;5718.93079;9.28152
0.0156;9.28536;5768.14144;9.28536
0.0156;9.28513;5817.42626;9.28513
0.0156;9.28568;5867.60111;9.28568
0.0157;9.28836;5918.48055;9.28836
0.0157;9.28920;5971.28836;9.28920
0.0158;9.29225;6026.24706;9.29225
0.0158;9.29644;6089.92053;9.29644
0.0159;9.30049;6145.99175;9.30049
0.0159;9.29976;6206.73558;9.29976
0.0160;9.30276;6264.80934;9.30276
0.0160;9.30882;6322.77185;9.30882
0.0161;9.31106;6387.44659;9.31106
0.0161;9.31165;6450.71214;9.31165
0.0162;9.31559;6510.12093;9.31559
0.0162;9.31732;6568.52845;9.31732
0.0163;9.31967;6630.86689;9.31967
0.0163;9.32134;6692.46365;9.32134
0.0164;9.32466;6751.05659;9.32466
0.0164;9.32711;6813.06128;9.32711
0.0165;9.32801;6872.39590;9.32801
0.0165;9.32749;6932.28679;9.32749
0.0166;9.32906;6985.79921;9.32906
0.0166;9.33276;7043.79880;9.33276
0.0167;9.33373;7101.98382;9.33373
0.0167;9.33384;7156.64584;9.33384
0.0168;9.33680;7212.75415;9.33680
0.0168;9.33893;7268.04660;9.33893
0.0168;9.34449;7322.30070;9.34449
0.0169;9.34857;7375.40519;9.34857
0.0169;9.35146;7428.25009;9.35146
0.0170;9.35574;7475.01319;9.35574
0.0170;9.36690;7525.78138;9.36690
0.0171;9.37024;7571.24654;9.37024
0.0171;9.37141;7619.27050;9.37141
0.0172;9.37697;7663.28938;9.37697
0.0172;9.38038;7700.96686;9.38038
0.0173;9.38325;7737.53183;9.38325
0.0173;9.38641;7776.21059;9.38641
0.0174;9.38865;7811.81136;9.38865
0.0174;9.38993;7847.41214;9.38993
0.0175;9.39345;7879.60117;9.39345
0.0175;9.39667;7911.79020;9.39667
0.0176;9.39754;7942.97797;9.39754
0.0176;9.40132;7970.49440;9.40132
0.0177;9.40657;7994.30242;9.40657
0.0177;9.41534;8022.85721;9.41534
0.0178;9.41095;8042.88264;9.41095
0.0178;9.41581;8062.98225;9.41581
0.0179;9.41786;8086.12275;9.41786
0.0179;9.42119;8109.26325;9.42119
0.0180;9.42444;8127.58282;9.42444
0.0180;9.42649;8143.41775;9.42649
0.0180;9.42866;8164.48154;9.42866
0.0181;9.42957;8175.42136;9.42957
0.0181;9.43501;8193.11050;9.43501
0.0182;9.43739;8202.12194;9.43739
0.0182;9.43801;8211.17047;9.43801
0.0183;9.43749;8217.73437;9.43749
0.0183;9.44009;8227.00540;9.44009
0.0184;9.44370;8227.33916;9.44370
0.0184;9.44714;8235.34933;9.44714
0.0185;9.45053;8240.76362;9.45053
0.0185;9.45326;8243.21117;9.45326
0.0186;9.45638;8244.80579;9.45638
0.0187;9.46409;8240.80070;9.46409
0.0187;9.46768;8241.91323;9.46768
0.0188;9.46987;8239.57693;9.46987
0.0189;9.47218;8242.58074;9.47218
0.0189;9.47831;8240.13319;9.47831
0.0190;9.48022;8238.27898;9.48022
0.0190;9.48296;8233.45804;9.48296
0.0191;9.48444;8226.59748;9.48444
0.0191;9.48597;8224.59493;9.48597
0.0192;9.48919;8216.99268;9.48919
0.0192;9.49302;8212.98760;9.49302
0.0192;9.49655;8207.86999;9.49655
0.0193;9.49996;8200.30482;9.49996
0.0193;9.50637;8198.96979;9.50637
0.0194;9.51094;8192.03506;9.51094
0.0194;9.51225;8181.35482;9.51225
0.0195;9.51351;8174.86510;9.51351
0.0195;9.51927;8166.33575;9.51927
0.0196;9.52092;8159.14142;9.52092
0.0196;9.52292;8151.53918;9.52292
0.0197;9.52679;8145.04945;9.52679
0.0197;9.53421;8138.52264;9.53421
0.0198;9.53761;8132.47793;9.53761
0.0198;9.54257;8123.72607;9.54257
0.0199;9.54779;8113.82460;9.54779
0.0199;9.54698;8105.85151;9.54698
0.0200;9.54948;8087.82862;9.54948
0.0200;9.55439;8075.44252;9.55439
0.0201;9.55873;8060.68303;9.55873
0.0201;9.55983;8043.55016;9.55983
0.0202;9.56282;8029.64360;9.56282
0.0202;9.56205;8010.02609;9.56205
0.0203;9.56197;7992.11445;9.56197
0.0203;9.56678;7966.45223;9.56678
0.0204;9.57789;7941.68002;9.57789
0.0204;9.58030;7917.50116;9.58030
0.0204;9.57516;7887.05508;9.57516
0.0205;9.57629;7856.68317;9.57629
0.0205;9.58106;7823.75245;9.58106
0.0206;9.58067;7789.33837;9.58067
0.0206;9.58313;7746.46910;9.58313
0.0207;9.58823;7707.41950;9.58823
0.0207;9.59498;7666.25611;9.59498
0.0208;9.59705;7618.19506;9.59705
0.0208;9.60491;7573.47159;9.60491
0.0209;9.61179;7523.29674;9.61179
0.0209;9.61879;7472.49147;9.61879
0.0210;9.62523;7424.98669;9.62523
0.0210;9.62885;7367.61752;9.62885
0.0211;9.63425;7310.24836;9.63425
0.0211;9.63965;7248.46618;9.63965
0.0212;9.65208;7179.56384;9.65208
0.0212;9.65770;7102.87384;9.65770
0.0213;9.66233;7016.39362;9.66233
0.0213;9.66470;6908.88670;9.66470
0.0214;9.66637;6773.49250;9.66637
0.0214;9.67030;6567.97219;9.67030
0.0215;9.67616;6228.98606;9.67616
0.0215;9.68151;5657.63070;9.68151
0.0216;9.68384;4848.97393;9.68384
0.0216;9.68526;4429.58938;9.68526
0.0216;9.68901;4163.99276;9.68901
0.0217;9.69372;3785.77161;9.69372
0.0217;9.69808;3455.87109;9.69808
0.0218;9.70353;3229.84325;9.70353
0.0218;9.70979;3098.52831;9.70979
0.0219;9.71630;3012.97519;9.71630
0.0219;9.72390;2747.86067;9.72390
0.0220;9.73250;2328.06820;9.73250
0.0220;9.74431;1709.20805;9.74431
0.0221;9.74998;1264.56920;9.74998
0.0221;9.75495;1299.94747;9.75495
0.0222;9.76165;1174.64016;9.76165
0.0222;9.77095;890.13063;9.77095
0.0223;9.77896;1078.48099;9.77896
0.0223;9.78992;1230.22929;9.78992
0.0224;9.80462;1257.70864;9.80462
0.0224;9.81047;1478.43344;9.81047
0.0225;9.81654;1435.37876;9.81654
0.0225;9.81987;1303.09963;9.81987
0.0226;9.82319;1275.28652;9.82319
0.0226;9.82668;1111.18920;9.82668
0.0227;9.83572;1048.99909;9.83572
0.0227;9.84456;1113.59967;9.84456
0.0228;9.85235;1075.66259;9.85235
0.0228;9.86033;1133.62510;9.86033
0.0228;9.87154;1261.37997;9.87154
0.0229;9.88083;1254.18564;9.88083
0.0229;9.88832;1253.70355;9.88832
0.0230;9.89154;1228.96843;9.89154
0.0230;9.89690;1100.10104;9.89690
0.0231;9.89733;1027.19362;9.89733
0.0231;9.90307;979.68883;9.90307
0.0232;9.91097;958.36545;9.91097
0.0232;9.91979;1004.31270;9.91979
0.0233;9.92987;1069.39537;9.92987
0.0233;9.93701;1104.55114;9.93701
0.0234;9.94644;1148.57001;9.94644
0.0234;9.95372;1186.65542;9.95372
0.0235;9.96016;1149.08919;9.96016
0.0235;9.96478;1107.66620;9.96478
0.0236;9.97325;1066.02071;9.97325
0.0236;9.97951;996.63629;9.97951
0.0237;9.98429;959.92299;9.98429
0.0237;9.98662;972.71702;9.98662
0.0238;9.99075;992.74245;9.99075
0.0238;9.99946;1021.77933;9.99946
0.0239;10.00405;1046.99655;10.00405
0.0239;10.01058;1054.33921;10.01058
0.0240;10.01709;1051.48373;10.01709
0.0240;10.02276;1032.53373;10.02276
0.0240;10.02781;1006.09274;10.02781
0.0241;10.03536;998.41632;10.03536
0.0241;10.03841;984.06476;10.03841
0.0242;10.04376;976.31418;10.04376
0.0242;10.05008;1013.73208;10.05008
0.0243;10.05338;1045.06817;10.05338
0.0243;10.05962;1053.56044;10.05962
0.0244;10.06451;1057.63970;10.06451
0.0244;10.06670;1043.28814;10.06670
0.0245;10.07028;1011.39577;10.07028
0.0245;10.07635;974.53414;10.07635
0.0246;10.08152;949.31692;10.08152
0.0246;10.08699;934.55743;10.08699
0.0247;10.09015;934.29785;10.09015
0.0247;10.09502;952.06115;10.09502
0.0248;10.09868;982.91515;10.09868
0.0248;10.10208;1014.77043;10.10208
0.0249;10.10831;1033.34959;10.10831
0.0249;10.11034;1042.13853;10.11034
0.0250;10.11419;1040.72933;10.11419
0.0250;10.11783;1030.49411;10.11783
0.0251;10.12149;1017.03256;10.12149
0.0252;10.12259;1015.47503;10.12259
0.0252;10.12539;1023.63354;10.12539
0.0252;10.12706;1037.05800;10.12706
0.0253;10.13075;1047.03363;10.13075
0.0254;10.13531;1041.06309;10.13531
0.0254;10.13691;1034.42503;10.13691
0.0256;10.13928;1059.08598;10.13928
0.0257;10.14481;1083.45026;10.14481
0.0257;10.14815;1114.45260;10.14815
0.0258;10.14849;1139.03939;10.14849
0.0258;10.15173;1155.20807;10.15173
0.0259;10.15482;1159.13899;10.15482
0.0259;10.15754;1153.16844;10.15754
0.0260;10.15898;1139.41023;10.15898
0.0260;10.15718;1128.06248;10.15718
0.0261;10.15563;1120.31190;10.15563
0.0261;10.15837;1119.12520;10.15837
0.0262;10.16126;1127.80289;10.16126
0.0262;10.16100;1139.44731;10.16100
0.0263;10.16273;1153.46512;10.16273
0.0263;10.16312;1165.10954;10.16312
0.0264;10.16523;1167.52001;10.16523
0.0265;10.16802;1179.98028;10.16802
0.0265;10.16973;1192.18096;10.16973
0.0266;10.17170;1215.98898;10.17170
0.0266;10.16958;1237.16402;10.16958
0.0267;10.17003;1255.03858;10.17003
0.0267;10.16979;1267.61010;10.16979
0.0268;10.17200;1268.90805;10.17200
0.0269;10.17386;1261.93623;10.17386
0.0269;10.17695;1246.39798;10.17695
0.0270;10.17802;1235.82899;10.17802
0.0271;10.17900;1243.20874;10.17900
0.0271;10.18094;1262.34416;10.18094
0.0272;10.18216;1276.28779;10.18216
0.0272;10.18329;1294.97820;10.18329
0.0273;10.18248;1304.95383;10.18248
0.0273;10.18291;1313.59444;10.18291
0.0274;10.18168;1315.81949;10.18168
0.0275;10.18323;1318.71205;10.18323
0.0275;10.18454;1323.45882;10.18454
0.0276;10.18859;1326.16596;10.18859
0.0276;10.18993;1327.83475;10.18993
0.0276;10.19159;1329.76312;10.19159
0.0277;10.19562;1338.47790;10.19562
0.0277;10.19343;1332.69277;10.19343
0.0278;10.19550;1324.53426;10.19550
0.0278;10.19739;1311.77732;10.19739
0.0279;10.19888;1299.02037;10.19888
0.0279;10.20364;1292.56773;10.20364
0.0280;10.20690;1284.29797;10.20690
0.0280;10.21302;1285.15090;10.21302
0.0281;10.21828;1293.93984;10.21828
0.0282;10.22527;1299.20579;10.22527
0.0282;10.23157;1303.02546;10.23157
0.0283;10.23481;1300.09581;10.23481
0.0283;10.23967;1293.19816;10.23967
0.0284;10.24803;1280.18163;10.24803
0.0284;10.25071;1264.30962;10.25071
0.0285;10.25590;1250.36598;10.25590
0.0285;10.25932;1243.35708;10.25932
0.0286;10.26491;1237.79445;10.26491
0.0286;10.27103;1235.75483;10.27103
0.0287;10.27732;1232.86226;10.27732
0.0287;10.28058;1231.30473;10.28058
0.0288;10.28188;1228.44925;10.28188
0.0288;10.28664;1223.96207;10.28664
0.0288;10.28974;1219.21530;10.28974
0.0289;10.29294;1219.17822;10.29294
0.0289;10.29672;1223.73956;10.29672
0.0290;10.30182;1228.04133;10.30182
0.0290;10.30623;1236.45943;10.30623
0.0291;10.30842;1241.50287;10.30842
0.0291;10.31223;1248.25218;10.31223
0.0292;10.31600;1246.95424;10.31600
0.0292;10.32177;1236.94152;10.32177
0.0293;10.32631;1222.81246;10.32631
0.0293;10.32843;1211.87264;10.32843
0.0294;10.33347;1206.45836;10.33347
0.0294;10.34083;1210.98262;10.34083
0.0295;10.34513;1216.61941;10.34513
0.0295;10.34977;1224.70375;10.34977
0.0296;10.35799;1239.09240;10.35799
0.0296;10.36574;1248.95678;10.36574
0.0297;10.37101;1258.78408;10.37101
0.0297;10.37601;1263.79044;10.37601
0.0298;10.37848;1262.86333;10.37848
0.0298;10.38033;1256.33652;10.38033
0.0299;10.38354;1248.06676;10.38354
0.0299;10.38440;1240.98369;10.38440
0.0300;10.38767;1238.79573;10.38767
0.0300;10.39446;1233.60395;10.39446
0.0300;10.39994;1233.78937;10.39994
0.0301;10.40684;1233.15894;10.40684
0.0301;10.41174;1233.34436;10.41174
0.0302;10.41944;1233.56686;10.41944
0.0302;10.42444;1232.12058;10.42444
0.0303;10.43087;1225.22293;10.43087
0.0303;10.43699;1220.73575;10.43699
0.0304;10.44460;1213.39309;10.44460
0.0304;10.44881;1216.69358;10.44881
0.0305;10.45150;1218.17694;10.45150
0.0305;10.45555;1226.22420;10.45555
0.0306;10.45994;1234.45688;10.45994
0.0306;10.46115;1238.57322;10.46115
0.0307;10.46485;1241.53995;10.46485
0.0307;10.46893;1246.47214;10.46893
0.0308;10.47036;1242.35580;10.47036
0.0308;10.47492;1241.61412;10.47492
0.0309;10.48194;1233.93770;10.48194
0.0309;10.48752;1227.48506;10.48752
0.0310;10.49687;1222.36745;10.49687
0.0310;10.50591;1216.13732;10.50591
