Part protocol
Network name;Part_Maxymos_1_MP-001_2017-02-22_16-05-46_Sila_bl_trans150obr_000034_OK.csv
Protocol version;3.01.00






Result information
Date;2017/02/22
Time;16:05:46
Cycle number;34
Total result;OK
Triggered switch signals
Part serial number;Sila_bl_trans150obr_000034
Measuring program name;BL_rans
Measuring program number;1
Zero X offset;0.00;mm
Tara Y offset;0.00;N









Process values - curve related
Block X;12.00;mm;XMIN-X;9.17;mm
Block Y;1380.49;N;XMIN-Y;0.11;N
Ref X;10.99;mm;XMAX-X;12.00;mm
Peak-peak X;2.84;mm;XMAX-Y;1380.49;N
Peak-peak Y;8191.03;N;YMIN-X;9.17;mm
;;;YMIN-Y;0.11;N
;;;YMAX-X;11.33;mm
;;;YMAX-Y;8191.15;N

Process values - EO related;Result;Entry;Exit;XMIN-X;XMIN-Y;XMAX-X;XMAX-Y;YMIN-Y;YMIN-X;YMAX-Y;YMAX-X;Calculated result;NOK cause;Violation X;Violation Y;Ref X;Ref Y;Switch force;Y-Diff;X-Diff;Force deviation ratio;Click ratio;Contact edge
;;;;mm;N;mm;N;N;mm;N;mm;-;-;-;-;-;-;-;-;-;-;-;-;
EO-01;OK;10.96;;;;;;;;;;;;;;;;
EO-02;OK;;;;;;;;;;;-0.3672;;;;;;
EO-03;OK;;;;;;;;;;;;;;;;;
EO-04;None;
EO-05;None;
EO-06;None;
EO-07;None;
EO-08;None;
EO-09;None;
EO-10;None;


















Evaluation objects settings;Reaction;X reference;Y-Reference;XMin;XMax;YMin;YMax;Entry;Exit;Curve part;Catch zone X;Catch zone Y;EO Name;EO description;Re-entry ignored;Generate statistics;X-Hysteresis;Y-Hysteresis;Down sampling rate;Calc limit min;Calc limit max;Grad limit min;Grad limit max;Hyst limit min;Hyst limit max;Speed limit min;Speed limit max;Time limit min;Time limit max;Is curve inside box;GetRef type;CalcInput1 | dx;CalcInput2 | dx;Calc operation;Average limit min;Average limit max;Break max bending;Visualization offset X;Visualization offset Y;-;-;-
EO-01;LINE-X;ABSOLUTE;ABSOLUTE;10.20;11.50;1000.00;;BELOW;NONE;ANY;+50%;+0%;;;FALSE;TRUE;0.0;0.0;1;;;;;;;;;;;;;;;;;;;0.00;0.00;;;
EO-02;CALC;ABSOLUTE;ABSOLUTE;9.94;;4671.78;;NONE;NONE;ANY;+0%;+0%;;;FALSE;TRUE;0.0;0.0;1;-0.410000;-0.310000;;;;;;;;;;;EO-01 | ENTRY;PV_TABLE_CURVE | YMAX-X;Subtraction;;;;0.00;0.00;;;
EO-03;NO-PASS;ABSOLUTE;ABSOLUTE;9.26;12.25;8743.21;;NONE;NONE;ANY;+0%;+0%;;;FALSE;TRUE;0.0;0.0;1;;;;;;;;;;;;;;;;;;;0.00;0.00;;;
EO-04;OFF
EO-05;OFF
EO-06;OFF
EO-07;OFF
EO-08;OFF
EO-09;OFF
EO-10;OFF



















Switch signal settings;Channel;Threshold at;;Trigger from;Reference;Latch until
Type S1;X;9.86;mm;LEFT;ABSOLUTE;None
Type S2;X;11.48;mm;LEFT;ABSOLUTE;None

















Device information
Device type;maXYmos TL
Device type number;5877A0
Device serial number;4915791
Firmware version;1.1.12 (r21150-TL_v1.1.x)
-
-
-
-
-
IP Address;192.168.21.10
Network name;Maxymos 1
Profibus address;10
-
-
-
Station name;Maxymos 1
Company name;ITW WIP PW
Comment;











Channel-X settings
Use the settings from global setup;True
Sensor-X type;Potentiometer
Unit;mm
Used range from;-5.00;mm
Used range to;25.00;mm
Decimal places;XXXX.XX
Scaling by;Teach-In
Point 1;15.00;mm;69.111;%
Point 2;13.221;mm;13.221;%
Invert signal;FALSE
Filter;OFF
Test point;0.00;mm
Tolerance;0.20;mm
Enable sensor test by dig-input;TRUE
Zoom from;0.00;mm
Zoom to;25.00;mm
Master Measurement Enable;FALSE
Master Measurement Nominal Position;0.00;mm
Encoder interpolation factor;-
Encoder electrical interface;-
Encoder referencing type;-
Encoder referencing edge;-
Encoder pulses per minute;-
Encoder use every nth-mark;-
Reference;-
Encoder reference points;-
Encoder coding;-
Encoder width;-
Encoder optimization;-
Encoder clock frequency;-
Termination resistor;-








Channel-Y settings
Use the settings from global setup;True
Sensor-Y type;Piezo
Unit;N
Used range from;0.00;N
Used range to;190000.00;N
Decimal places;XXXX.XX
Scaling by;Calibration Sheet
Sensitivity;-4.3000;pC/N
-
Invert signal;FALSE
Filter;500 Hz
Piezo reset;TRUE
Test point;0.00;N
Tolerance;0.00;N
Enable sensor test by dig-input;FALSE
Zoom from;0.00;N
Zoom to;1000.00;N












Cycle control settings
Use the settings from global setup;True
Measuring function;Y (X)
Delta-X;User-Defined;0.0100;mm
START condition;Threshold-X;9.00;mm;Trigger from;LEFT
STOP condition;Threshold-X;12.00;mm;Trigger from;LEFT
Cycle time out;1.00;s
Turning point RIGHT;YMAX
Turning point LEFT;NONE
Cut curve at;NONE










Evaluation settings
Capture only first NOK-EO for statistics;False
Hysteresis X;0.0;%
Hysteresis Y;0.0;%






Trigger Y settings
Threshold at;1607.52;N
Value X at TRIGGER Y;0.00;mm
Approach from;BELOW






Block settings
Value X at block;XMAX
Block at;0.00;mm







Measuring curve
Number of measuring points;230
Ref. Graph on;ABSOLUTE
Curve segments;0;176;175;230;


Time;X(ABSOLUTE);Y;X (ABSOLUTE)


s;mm;N;mm
0.0000;9.16811;0.11125;9.16811
0.0002;9.18418;0.29667;9.18418
0.0003;9.19470;0.59335;9.19470
0.0004;9.21014;1.44628;9.21014
0.0006;9.22531;3.18924;9.22531
0.0007;9.23666;5.93346;9.23666
0.0009;9.25099;9.60479;9.25099
0.0011;9.26472;14.87074;9.26472
0.0012;9.27537;18.31957;9.27537
0.0013;9.28635;20.95254;9.28635
0.0015;9.30148;23.65968;9.30148
0.0016;9.31150;25.03180;9.31150
0.0018;9.32871;27.51643;9.32871
0.0021;9.34228;35.22993;9.34228
0.0023;9.35769;44.01888;9.35769
0.0024;9.36956;47.80146;9.36956
0.0025;9.38662;51.73238;9.38662
0.0026;9.39841;55.70038;9.39841
0.0027;9.40932;59.63130;9.40932
0.0028;9.41945;64.97141;9.41945
0.0030;9.43067;70.42278;9.43067
0.0032;9.44451;72.87034;9.44451
0.0033;9.45872;73.79744;9.45872
0.0034;9.47277;74.50204;9.47277
0.0035;9.48342;74.79871;9.48342
0.0038;9.49470;76.83834;9.49470
0.0040;9.50531;79.99049;9.50531
0.0041;9.51987;82.17846;9.51987
0.0042;9.53449;84.55184;9.53449
0.0043;9.54861;87.14773;9.54861
0.0044;9.56038;91.15282;9.56038
0.0047;9.57349;97.79088;9.57349
0.0048;9.58924;102.35223;9.58924
0.0049;9.60464;104.02102;9.60464
0.0051;9.61878;105.54146;9.61878
0.0054;9.63053;105.80105;9.63053
0.0055;9.64219;106.35732;9.64219
0.0057;9.65464;107.84068;9.65464
0.0058;9.66471;110.73324;9.66471
0.0060;9.67491;114.81250;9.67491
0.0060;9.68663;118.03882;9.68663
0.0062;9.69968;125.19606;9.69968
0.0064;9.71271;130.79576;9.71271
0.0066;9.72349;138.28676;9.72349
0.0067;9.73886;143.33020;9.73886
0.0068;9.75134;146.14860;9.75134
0.0070;9.76575;149.37492;9.76575
0.0071;9.77718;150.85829;9.77718
0.0072;9.78891;152.26748;9.78891
0.0074;9.80007;154.82629;9.80007
0.0075;9.81021;156.60633;9.81021
0.0077;9.82414;160.46308;9.82414
0.0078;9.83527;165.65486;9.83527
0.0080;9.84819;173.36836;9.84819
0.0081;9.85890;177.11386;9.85890
0.0083;9.87104;182.56523;9.87104
0.0084;9.88461;188.98078;9.88461
0.0086;9.89475;192.68920;9.89475
0.0087;9.90589;195.21092;9.90589
0.0089;9.91692;196.99096;9.91692
0.0091;9.93241;197.32471;9.93241
0.0092;9.94267;197.62139;9.94267
0.0094;9.95718;198.73391;9.95718
0.0095;9.96921;200.88479;9.96921
0.0097;9.98264;205.37197;9.98264
0.0098;9.99715;209.74790;9.99715
0.0100;10.00962;214.60592;10.00962
0.0102;10.02058;220.98440;10.02058
0.0103;10.03323;225.17490;10.03323
0.0104;10.04486;227.51120;10.04486
0.0105;10.05549;229.40250;10.05549
0.0107;10.06847;231.33087;10.06847
0.0108;10.08056;232.18381;10.08056
0.0110;10.09148;232.66590;10.09148
0.0112;10.10508;234.22343;10.10508
0.0113;10.11637;235.81805;10.11637
0.0114;10.12988;239.30396;10.12988
0.0116;10.14383;244.05073;10.14383
0.0117;10.15654;247.87040;10.15654
0.0118;10.16853;254.10053;10.16853
0.0119;10.18440;258.32813;10.18440
0.0120;10.19506;264.37284;10.19506
0.0122;10.20530;269.78712;10.20530
0.0124;10.21620;275.23849;10.21620
0.0125;10.22631;277.09270;10.22631
0.0126;10.23850;278.42773;10.23850
0.0127;10.25122;279.76276;10.25122
0.0128;10.26212;280.31902;10.26212
0.0130;10.27651;281.20904;10.27651
0.0131;10.28913;282.87783;10.28913
0.0132;10.30047;285.77039;10.30047
0.0135;10.31147;294.74475;10.31147
0.0137;10.32552;300.12195;10.32552
0.0138;10.33992;305.53624;10.33992
0.0139;10.35300;310.09759;10.35300
0.0141;10.36588;323.26246;10.36588
0.0142;10.37735;339.72781;10.37735
0.0144;10.38974;350.51930;10.38974
0.0146;10.40078;348.59092;10.40078
0.0148;10.41355;343.21372;10.41355
0.0149;10.42366;348.81343;10.42366
0.0150;10.43549;368.31969;10.43549
0.0152;10.44642;390.19933;10.44642
0.0153;10.46143;409.81684;10.46143
0.0154;10.47213;421.31292;10.47213
0.0156;10.48599;444.82427;10.48599
0.0157;10.49618;464.07094;10.49618
0.0158;10.50881;478.31125;10.50881
0.0160;10.52100;502.49011;10.52100
0.0162;10.53158;532.78785;10.53158
0.0164;10.54544;549.95781;10.54544
0.0165;10.55625;557.00380;10.55625
0.0166;10.56635;565.34773;10.56635
0.0167;10.57982;579.58804;10.57982
0.0169;10.59323;605.62110;10.59323
0.0171;10.60462;620.45476;10.60462
0.0172;10.61701;633.24879;10.61701
0.0173;10.62741;641.85231;10.62741
0.0174;10.63748;651.75378;10.63748
0.0177;10.65006;680.97608;10.65006
0.0178;10.66250;695.66140;10.66250
0.0180;10.67265;706.45288;10.67265
0.0181;10.68378;718.83899;10.68378
0.0184;10.69540;736.49104;10.69540
0.0185;10.71156;747.69045;10.71156
0.0187;10.72774;758.77861;10.72774
0.0188;10.74159;763.04328;10.74159
0.0189;10.75276;767.86422;10.75276
0.0191;10.76447;781.73369;10.76447
0.0193;10.77634;799.31157;10.77634
0.0195;10.78811;814.84983;10.78811
0.0197;10.80178;825.86382;10.80178
0.0198;10.81257;833.35481;10.81257
0.0199;10.82644;838.99160;10.82644
0.0200;10.83808;844.92507;10.83808
0.0202;10.84966;853.04649;10.84966
0.0204;10.86061;860.38915;10.86061
0.0204;10.87401;863.13338;10.87401
0.0206;10.88503;867.95432;10.88503
0.0209;10.89683;888.61018;10.89683
0.0211;10.90761;898.58582;10.90761
0.0212;10.92192;909.37730;10.92192
0.0213;10.93256;922.13425;10.93256
0.0214;10.94790;945.71976;10.94790
0.0215;10.95872;986.25273;10.95872
0.0217;10.97053;1136.10974;10.97053
0.0219;10.98189;1456.29421;10.98189
0.0221;10.99780;1780.26127;10.99780
0.0222;11.00859;1949.17953;11.00859
0.0225;11.01894;2356.36340;11.01894
0.0227;11.02941;2716.67291;11.02941
0.0229;11.03941;2973.55475;11.03941
0.0230;11.05021;3156.30540;11.05021
0.0232;11.06068;3335.68139;11.06068
0.0234;11.07148;3571.16568;11.07148
0.0237;11.08241;3909.96639;11.08241
0.0239;11.09472;4124.27564;11.09472
0.0244;11.10513;4763.64332;11.10513
0.0248;11.11539;5166.26583;11.11539
0.0250;11.12719;5483.11273;11.12719
0.0252;11.14172;5685.36964;11.14172
0.0252;11.15174;5824.32391;11.15174
0.0254;11.16281;6109.94597;11.16281
0.0256;11.17693;6401.50148;11.17693
0.0259;11.19171;6835.20051;11.19171
0.0261;11.20284;7042.46377;11.20284
0.0262;11.21491;7174.66874;11.21491
0.0264;11.22926;7420.90743;11.22926
0.0265;11.24201;7587.19272;11.24201
0.0266;11.25237;7735.90012;11.25237
0.0268;11.26503;7865.32378;11.26503
0.0270;11.27767;8004.35222;11.27767
0.0271;11.29072;8082.08058;11.29072
0.0273;11.30370;8137.63262;11.30370
0.0275;11.31806;8180.13105;11.31806
0.0276;11.32698;8191.14504;11.32698
0.0277;11.32994;8189.51334;11.32994
0.0278;11.34269;8175.01344;11.34269
0.0279;11.35361;8157.99182;11.35361
0.0281;11.36514;8107.40905;11.36514
0.0284;11.37625;7988.25770;11.37625
0.0286;11.38699;7906.82093;11.38699
0.0288;11.39876;7771.16714;11.39876
0.0288;11.40882;7690.24955;11.40882
0.0289;11.41945;7598.76297;11.41945
0.0290;11.43098;7490.40311;11.43098
0.0291;11.44395;7339.35941;11.44395
0.0292;11.45838;7105.13597;11.45838
0.0294;11.47464;6539.97367;11.47464
0.0295;11.48906;6031.40176;11.48906
0.0296;11.50033;5146.75958;11.50033
0.0297;11.51525;4510.32155;11.51525
0.0298;11.53581;3858.93862;11.53581
0.0299;11.55114;3227.21028;11.55114
0.0300;11.56153;2930.94507;11.56153
0.0300;11.57192;2403.05233;11.57192
0.0301;11.58243;1984.78030;11.58243
0.0303;11.59725;1558.86895;11.59725
0.0304;11.61253;1382.38552;11.61253
0.0305;11.63111;1269.20472;11.63111
0.0306;11.64945;1207.08879;11.64945
0.0307;11.66227;1179.27568;11.66227
0.0308;11.67252;1156.87686;11.67252
0.0310;11.68349;1122.57403;11.68349
0.0310;11.69528;1110.55877;11.69528
0.0311;11.70699;1100.39771;11.70699
0.0312;11.72079;1088.64204;11.72079
0.0312;11.73430;1087.15867;11.73430
0.0314;11.74904;1090.34791;11.74904
0.0315;11.76122;1089.08705;11.76122
0.0317;11.77716;1080.63187;11.77716
0.0318;11.78982;1068.50535;11.78982
0.0319;11.80166;1051.92874;11.80166
0.0320;11.81254;1035.87131;11.81254
0.0321;11.82567;1024.56064;11.82567
0.0322;11.83591;1025.82151;11.83591
0.0326;11.84861;1012.17454;11.84861
0.0329;11.85934;1018.40468;11.85934
0.0332;11.87163;1073.99380;11.87163
0.0335;11.88273;1100.95397;11.88273
0.0336;11.89396;1128.58166;11.89396
0.0341;11.90495;1209.94426;11.90495
0.0343;11.91633;1230.67430;11.91633
0.0346;11.92723;1286.78260;11.92723
0.0348;11.93794;1329.87438;11.93794
0.0350;11.95030;1344.41136;11.95030
0.0352;11.96143;1352.97780;11.96143
0.0353;11.97938;1364.39971;11.97938
0.0355;11.99476;1377.37916;11.99476
0.0355;12.00338;1380.49423;12.00338
